 Energy(eV)     Ext_Z     Sca_Z     Ext_X     Sca_X
 442.801 51852.7 47622.6 29424.4 27773.6
 441.225 53873.7 49475.8 29998.6 28295
 439.66 55990.9 51417.3 30586.2 28827.3
 438.107 58208.6 53450.9 31187.9 29371
 436.564 60531.1 55580.5 31804.4 29926.5
 435.032 62962.4 57809.9 32436.8 30494.7
 433.511 65506.7 60142.8 33086.2 31076.2
 432 68168.1 62583 33753.8 31672.2
 430.5 70950.3 65133.9 34441.3 32283.7
 429.011 73856.8 67798.6 35150.6 32912.3
 427.532 76890.8 70580 35883.9 33559.9
 426.062 80055 73480.5 36644.2 34228.5
 424.603 83351.5 76501.9 37434.7 34921.1
 423.154 86781.4 79645.3 38259.7 35641
 421.715 90345.4 82911 39124.3 36392.6
 420.285 94042.7 86298.4 40034.5 37181
 418.865 97871.5 89805.5 40997.9 38012.9
 417.455 101828 93429 42023.4 38895.9
 416.054 105908 97164.3 43121.7 39839.9
 414.663 110104 101005 44305.4 40856.1
 413.28 114407 104942 45589.4 41958.3
 411.907 118805 108964 46990.3 43162.1
 410.544 123285 113059 48526.8 44485.2
 409.189 127829 117211 50218.7 45947
 407.843 132419 121402 52086.1 47567.6
 406.505 137030 125609 54148 49366.5
 405.177 141637 129808 56419.7 51360.8
 403.857 146211 133973 58911.3 53563
 402.546 150719 138074 61624.3 55978.2
 401.243 155128 142077 64549.8 58602.2
 399.949 159399 145949 67667.6 61419.7
 398.663 163494 149652 70946.8 64405
 397.385 167373 153149 74347.6 67523.1
 396.115 170993 156401 77825.9 70733.9
 394.854 174315 159370 81337.9 73995.6
 393.6 177298 162018 84844.6 77270.1
 392.355 179905 164309 88315.4 80525.9
 391.117 182101 166210 91730.1 83740.5
 389.887 183856 167693 95078.9 86901.2
 388.665 185144 168731 98361.4 90003.9
 387.45 185945 169304 101585 93052
 386.243 186245 169398 104761 96053.9
 385.044 186037 169002 107907 99021.9
 383.852 185322 168114 111038 101970
 382.667 184105 166735 114172 104912
 381.49 182402 164873 117325 107862
 380.319 180233 162541 120511 110834
 379.156 177625 159754 123745 113837
 378 174612 156533 127036 116883
 376.851 171234 152901 130394 119977
 375.71 167541 148883 133825 123127
 374.574 163591 144507 137333 126334
 373.446 159462 139811 140920 129599
 372.325 155265 134846 144583 132918
 371.21 151168 129703 148318 136287
 370.102 147444 124545 152115 139695
 369 144541 119675 155962 143127
 367.905 143180 115638 159842 146567
 366.817 144437 113346 163734 149992
 365.735 149659 114127 167614 153377
 364.659 159862 119382 171458 156694
 363.59 174362 129462 175240 159913
 362.527 189642 142266 178931 163000
 361.47 200812 153693 182497 165910
 360.419 205144 160507 185890 168585
 359.374 203318 162176 189040 170935
 358.336 197652 159999 191843 172835
 357.303 190280 155586 194144 174099
 356.276 182593 150153 195725 174470
 355.255 175377 144471 196284 173594
 354.24 169077 139009 195423 171016
 353.231 163987 134075 192688 166231
 352.228 160368 129914 187736 158894
 351.23 158491 126759 180760 149342
 350.238 158593 124827 173156 139367
 349.251 160718 124234 167705 132349
 348.27 164448 124840 167098 131398
 347.295 168805 126124 171672 136691
 346.324 172415 127197 179331 145553
 345.36 173799 126944 187502 154884
 344.4 171990 124485 194436 162671
 343.446 167253 119770 199239 167969
 342.498 161109 113770 201487 170436
 341.554 155763 108231 201026 170092
 340.616 153443 105285 198110 167438
 339.683 155580 106658 193668 163644
 338.754 161750 112341 189148 160224
 337.831 169437 120094 185666 158105
 336.913 175360 126828 183358 157143
 336 177206 130374 181688 156615
 335.092 174505 130165 180050 155869
 334.189 168236 126842 178056 154540
 333.291 159741 121436 175536 152500
 332.397 150032 114838 172455 149750
 331.508 139796 107719 168847 146347
 330.624 129622 100614 164780 142362
 329.745 120032 93906.4 160330 137868
 328.87 111355 87785.5 155582 132926
 328 103683 82264.7 150623 127586
 327.135 96944.9 77259.8 145549 121885
 326.274 91008.7 72654.5 140472 115847
