 Energy(eV)     Ext_Z     Sca_Z     Ext_X     Sca_X
 442.801 177.803 108.278 156.285 97.7134
 441.225 183.039 111.522 160.691 100.534
 439.66 188.476 114.887 165.256 103.454
 438.107 194.124 118.38 169.988 106.478
 436.564 199.992 122.006 174.893 109.611
 435.032 206.094 125.773 179.981 112.859
 433.511 212.44 129.688 185.26 116.227
 432 219.044 133.758 190.74 119.721
 430.5 225.92 137.993 196.431 123.346
 429.011 233.082 142.399 202.343 127.11
 427.532 240.547 146.988 208.489 131.02
 426.062 248.331 151.768 214.879 135.083
 424.603 256.452 156.751 221.528 139.306
 423.154 264.931 161.948 228.448 143.699
 421.715 273.787 167.371 235.655 148.27
 420.285 283.044 173.034 243.165 153.03
 418.865 292.726 178.95 250.993 157.987
 417.455 302.858 185.136 259.158 163.154
 416.054 313.469 191.607 267.68 168.543
 414.663 324.589 198.381 276.579 174.165
 413.28 336.25 205.478 285.878 180.035
 411.907 348.488 212.917 295.599 186.166
 410.544 361.342 220.722 305.77 192.576
 409.189 374.853 228.916 316.417 199.28
 407.843 389.065 237.526 327.571 206.297
 406.505 404.029 246.581 339.264 213.647
 405.177 419.797 256.11 351.531 221.35
 403.857 436.428 266.149 364.409 229.43
 402.546 453.985 276.734 377.939 237.912
 401.243 472.539 287.905 392.167 246.822
 399.949 492.165 299.707 407.139 256.189
 398.663 512.947 312.186 422.909 266.047
 397.385 534.977 325.398 439.533 276.428
 396.115 558.357 339.399 457.075 287.372
 394.854 583.199 354.255 475.601 298.918
 393.6 609.626 370.035 495.187 311.113
 392.355 637.776 386.819 515.915 324.005
 391.117 667.802 404.694 537.875 337.65
 389.887 699.872 423.755 561.165 352.106
 388.665 734.176 444.111 585.894 367.439
 387.45 770.926 465.881 612.183 383.721
 386.243 810.358 489.2 640.164 401.033
 385.044 852.74 514.217 669.986 419.463
 383.852 898.373 541.103 701.813 439.11
 382.667 947.595 570.048 735.827 460.083
 381.49 1000.79 601.267 772.232 482.505
 380.319 1058.4 635.005 811.257 506.512
 379.156 1120.93 671.54 853.158 532.257
 378 1188.95 711.19 898.223 559.912
 376.851 1263.11 754.319 946.775 589.671
 375.71 1344.18 801.343 999.184 621.752
 374.574 1433.04 852.747 1055.87 656.405
 373.446 1530.72 909.087 1117.3 693.911
 372.325 1638.41 971.016 1184.01 734.591
 371.21 1757.55 1039.29 1256.64 778.814
 370.102 1889.79 1114.81 1335.89 827.003
 369 2037.12 1198.62 1422.59 879.644
 367.905 2201.92 1291.97 1517.7 937.303
 366.817 2387.06 1396.36 1622.32 1000.63
 365.735 2596.01 1513.56 1737.75 1070.4
 364.659 2833.02 1645.75 1865.53 1147.51
 363.59 3103.33 1795.54 2007.46 1233.01
 362.527 3413.46 1966.14 2165.67 1328.15
 361.47 3771.62 2161.52 2342.72 1434.43
 360.419 4188.25 2386.58 2541.67 1553.64
 359.374 4676.84 2647.51 2766.22 1687.9
 358.336 5255.03 2952.1 3020.86 1839.84
 357.303 5946.33 3310.3 3311.09 2012.61
 356.276 6782.74 3734.95 3643.65 2210.07
 355.255 7808.77 4242.84 4026.92 2437
 354.24 9087.96 4856.09 4471.3 2699.22
 353.231 10713.1 5604.28 4989.82 3003.93
 352.228 12820.9 6527.05 5598.72 3359.8
 351.23 15602.4 7675.82 6318.08 3776.91
 350.238 19255.1 9106.2 7171.76 4265.76
 349.251 23690.3 10831.2 8185.87 4834.93
 348.27 27930.5 12716.7 9388.42 5493.19
 347.295 30671.8 14527 10833.2 6281.65
 346.324 32249.2 16187.2 12632.5 7294.35
 345.36 33552.5 17615.7 14891 8587.58
 344.4 34418 18492.4 17678.5 10176.2
 343.446 34157.8 18433.2 21050.6 12075.3
 342.498 32389.8 17283.1 25002.8 14269
 341.554 29378.2 15252.1 29364.5 16644.3
 340.616 25843.9 12785.3 33658.7 18912.8
 339.683 22570.4 10335.5 37029.2 20578.4
 338.754 20222.3 8282.03 38454.7 21071.9
 337.831 19377.3 6996.4 37334.7 20091.3
 336.913 19951.3 6727.63 34002.8 17882.5
 336 20104 7032.25 29520.8 15091.3
 335.092 18204.8 6933.52 24881.9 12257.8
 334.189 15264.5 6248.06 20674.7 9650.01
 333.291 12553.8 5357.96 17268.2 7437.09
 332.397 10428.6 4510.85 14900.5 5729.55
 331.508 8848.63 3779.64 13786.1 4651.38
 330.624 7720.37 3167.87 14070.5 4402.02
 329.745 6994.43 2665.07 15226.1 5018.44
 328.87 6689.37 2272.32 15589.3 5819
 328 6872.06 2022.05 14262.2 5947.76
 327.135 7459.58 1967.46 12141.1 5447.09
 326.274 7863.74 2042.19 10127.8 4734.81
