 Energy(eV)     Ext_Z     Sca_Z     Ext_X     Sca_X
 442.801 5782.86 5042.1 5362.53 4844.04
 441.225 5953.78 5188.51 5506.79 4973.36
 439.66 6131.43 5340.53 5655.85 5106.91
 438.107 6316.18 5498.46 5809.9 5244.87
 436.564 6508.41 5662.61 5969.17 5387.43
 435.032 6708.56 5833.34 6133.88 5534.8
 433.511 6917.07 6011 6304.29 5687.18
 432 7134.43 6195.99 6480.65 5844.8
 430.5 7361.17 6388.73 6663.24 6007.91
 429.011 7597.85 6589.69 6852.34 6176.75
 427.532 7845.07 6799.34 7048.25 6351.58
 426.062 8103.5 7018.22 7251.31 6532.69
 424.603 8373.85 7246.9 7461.85 6720.38
 423.154 8656.9 7486 7680.24 6914.95
 421.715 8953.47 7736.19 7906.85 7116.74
 420.285 9264.49 7998.19 8142.1 7326.1
 418.865 9590.94 8272.81 8386.41 7543.41
 417.455 9933.92 8560.89 8640.25 7769.05
 416.054 10294.6 8863.39 8904.09 8003.45
 414.663 10674.3 9181.32 9178.46 8247.05
 413.28 11074.4 9515.82 9463.89 8500.32
 411.907 11496.5 9868.12 9760.97 8763.75
 410.544 11942.3 10239.6 10070.3 9037.88
 409.189 12413.7 10631.7 10392.6 9323.26
 407.843 12912.9 11046.1 10728.4 9620.49
 406.505 13442.1 11484.6 11078.7 9930.19
 405.177 14004 11949.3 11444 10253
 403.857 14601.5 12442.5 11825.3 10589.7
 402.546 15237.7 12966.6 12223.5 10941
 401.243 15916.4 13524.4 12639.5 11307.7
 399.949 16641.6 14119.2 13074.2 11690.7
 398.663 17417.9 14754.4 13528.9 12090.7
 397.385 18250.5 15434.2 14004.4 12508.7
 396.115 19145.2 16162.9 14502.2 12945.8
 394.854 20108.8 16945.8 15023.3 13402.9
 393.6 21148.8 17788.6 15569.1 13881.1
 392.355 22273.8 18698.1 16141 14381.5
 391.117 23493.8 19681.7 16740.4 14905.2
 389.887 24820 20748.2 17368.9 15453.4
 388.665 26265.4 21907.3 18027.8 16027.2
 387.45 27844.8 23170.5 18718.9 16627.8
 386.243 29575.1 24550.5 19443.7 17256.2
 385.044 31475.7 26062.3 20203.7 17913.5
 383.852 33568.6 27722.4 21000.5 18600.5
 382.667 35878.4 29549.7 21835.3 19317.8
 381.49 38432.8 31565.1 22709.4 20065.6
 380.319 41261.8 33791.5 23623.5 20843.7
 379.156 44397.8 36253.3 24578 21651.1
 378 47873.7 38975.4 25572.6 22485.5
 376.851 51720.7 41981.5 26605.9 23343.3
 375.71 55965.4 45291.4 27675 24218.7
 374.574 60623.8 48916.8 28775.4 25102.8
 373.446 65694.2 52856 29899.8 25982.2
 372.325 71147.9 57086 31037.9 26837.8
 371.21 76918.9 61555.4 32176.2 27642.9
 370.102 82894.6 66176.8 33298.7 28362
 369 88911.6 70823 34392.6 28952.2
 367.905 94760 75331.1 35463 29375.7
 366.817 100201 79514.7 36569.5 29636.8
 365.735 104998 83187.3 37896.9 29870.2
 364.659 108948 86189.2 39831.2 30476.9
 363.59 111921 88412 42887.7 32142.7
 362.527 113868 89810.3 47297.9 35416.5
 361.47 114819 90397 52626.2 40086.5
 360.419 114855 90223.9 58112.1 45329.1
 359.374 114078 89356.3 63285 50452.9
 358.336 112575 87848.1 68065.7 55198.1
 357.303 110400 85725.6 72553.5 59575.9
 356.276 107564 82981.6 76866.5 63676.7
 355.255 104048 79583.3 81086.6 67582.6
 354.24 99832.2 75491.7 85253.1 71342.5
 353.231 94941 70692.2 89369.6 74971.5
 352.228 89503.6 65232.6 93410.9 78454.8
 351.23 83829.3 59271.9 97327.9 81751.2
 350.238 78502.6 53150.9 101050 84795.5
 349.251 74509.9 47515.8 104485 87498
 348.27 73310.4 43459.2 107513 89739.1
 347.295 76497.9 42400.7 109969 91360.3
 346.324 84543.7 45294.1 111602 92156.2
 345.36 94544.7 51302.6 112081 91925
 344.4 99572.3 56794.7 111212 90616
 343.446 95923.5 58136.8 109135 88307.5
 342.498 87316.5 55676.9 105992 84920.9
 341.554 78017.5 51503.3 101688 80212.9
 340.616 69719 46928.1 96082.8 73971.6
 339.683 62706.7 42455.4 89237 66193.5
 338.754 56880.9 38226 81719 57416
 337.831 52140.1 34266.4 75071.7 49330.7
 336.913 48515.4 30605.5 71808.4 44997.1
 336 46264.4 27366 73443.4 46715.3
 335.092 45970.8 24899.3 77970.1 52682.4
 334.189 48457.1 23936 81711.5 58570.2
 333.291 53840.2 25312.4 82842.3 61831.1
 332.397 60010.1 28647.1 81483.2 62257.3
 331.508 64340.5 32096.1 78340.4 60507.3
 330.624 66371.4 34541.3 74043.2 57289.4
 329.745 66235.2 35588.6 69182.1 53384.7
 328.87 64889 35247.6 64556.7 49853.5
 328 63489.4 34195.8 60716.8 47255.3
 327.135 60679.3 32689.6 57378.8 45036.2
 326.274 54815.5 30424.5 54139.8 42658.6
