 Energy(eV)     Ext/Sca_Zpol     Ext/Sca_Ypol     Ext/Sca_Xpol
 2.7 27341.8 25426.2 23547.7 21912.9 27216.3 25255.8
 2.71 28431.2 26439 24364.4 22676.8 28357.7 26321.2
 2.72 29571.6 27499.1 25216.1 23473.2 29549.2 27433.2
 2.73 30765.1 28608.4 26104.6 24303.6 30792.7 28593.7
 2.74 32013.8 29768.8 27031.7 25169.9 32090.3 29804.4
 2.75 33319.9 30982.3 27999.2 26073.6 33444 31067.3
 2.76 34685.6 32250.8 29009.2 27016.6 34855.9 32384.3
 2.77 36113 33576.2 30063.8 28000.9 36328.1 33757.2
 2.78 37604.2 34960.6 31165.2 29028.3 37862.5 35187.8
 2.79 39161.5 36405.6 32315.6 30101 39461.3 36678.1
 2.8 40786.8 37913.2 33517.4 31221.2 41126.4 38229.7
 2.81 42482.3 39485.2 34773.2 32391 42859.7 39844.4
 2.82 44249.7 41123.1 36085.5 33612.9 44663.1 41523.7
 2.83 46091 42828.5 37457 34889.2 46538.1 43269.2
 2.84 48007.7 44602.8 38890.5 36222.4 48486.4 45082.1
 2.85 50001.4 46447 40389 37615.1 50509.4 46963.5
 2.86 52073.4 48362.2 41955.3 39069.9 52608.1 48914.4
 2.87 54224.5 50349.1 43592.6 40589.5 54783.5 50935.3
 2.88 56455.6 52407.9 45304 42176.6 57036 53026.6
 2.89 58767 54538.8 47092.5 43834 59365.9 55188.2
 2.9 61158.7 56741.2 48961.6 45564.3 61772.9 57419.5
 2.91 63630.1 59014.4 50914.3 47370.5 64256.2 59719.7
 2.92 66180.4 61357 52953.9 49255 66814.8 62087
 2.93 68808 63766.9 55083.5 51220.5 69446.6 64519.6
 2.94 71510.9 66241.8 57306.3 53269.5 72149.3 67014.4
 2.95 74286.4 68778.4 59625.3 55404.2 74919.6 69568
 2.96 77131 71372.8 62043.2 57626.8 77753.5 72176.1
 2.97 80040.7 74020.3 64562.6 59938.9 80646.2 74833.6
 2.98 83010.9 76715.6 67185.9 62342.1 83592.3 77534.4
 2.99 86036.1 79452.5 69915.1 64837.2 86585.2 80271.5
 3 89110.4 82224.2 72751.8 67424.9 89617.7 83037.2
 3.01 92227.3 85023 75697 70104.8 92681.7 85822.7
 3.02 95379.8 87841 78751.6 72876.3 95768.6 88618.3
 3.03 98561 90669.4 81915.6 75737.8 98869 91413.7
 3.04 101764 93499.4 85188.6 78686.9 101973 94197.9
 3.05 104982 96322.2 88569.7 81720.5 105072 96959.3
 3.06 108209 99129.1 92057.6 84834.5 108154 99686.2
 3.07 111442 101912 95650.8 88024 111213 102367
 3.08 114679 104665 99348 91283.7 114241 104990
 3.09 117921 107384 103148 94607.6 117231 107547
 3.1 121175 110066 107052 97990 120183 110028
 3.11 124453 112715 111063 101426 123100 112428
 3.12 127775 115337 115187 104912 125990 114745
 3.13 131175 117949 119439 108448 128873 116984
 3.14 134699 120575 123838 112040 131777 119155
 3.15 138412 123251 128422 115699 134749 121279
 3.16 142404 126029 133241 119450 137858 123390
 3.17 146795 128979 138372 123331 141200 125539
 3.18 151740 132194 143917 127401 144908 127800
 3.19 157432 135786 150012 131739 149163 130275
 3.2 164092 139883 156813 136445 154196 133096
 3.21 171932 144600 164474 141622 160284 136421
 3.22 181066 149978 173066 147328 167694 140407
 3.23 191311 155854 182437 153490 176547 145123
 3.24 201883 161672 191995 159759 186511 150377
 3.25 211072 166293 200541 165391 196339 155446
 3.26 216316 168096 206413 169317 203609 158919
 3.27 215195 165681 208151 170551 205450 159130
 3.28 207090 158897 205323 168735 200429 155258
 3.29 193856 149121 198744 164318 189776 148038
 3.3 178520 138307 189882 158208 176313 139127
 3.31 163509 127898 180102 151284 162547 129989
 3.32 150027 118543 170308 144155 149843 121415
 3.33 138369 110346 160952 137145 138634 113656
 3.34 128386 103171 152194 130387 128870 106685
 3.35 119793 96817.8 144039 123915 120331 100379
 3.36 112301 91101.3 136432 117714 112776 94604.2
 3.37 105671 85871.5 129305 111760 106000 89247.5
 3.38 99716.2 81016.6 122595 106028 99841.9 84222.9
 3.39 94299.2 76457.6 116255 100501 94186.8 79470.6
 3.4 89323.9 72141.5 110252 95172 88955.2 74951.6
 3.41 84725.9 68036.2 104571 90039.3 84097.7 70644.6
 3.42 80466.2 64126.1 99207.2 85110 79588.7 66542.3
 3.43 76527 60408.9 94167.7 80397.1 75423.4 62649.7
 3.44 72907.9 56894.2 89471.6 75919.8 71615.7 58982.7
 3.45 69624.5 53602.2 85149 71703.4 68198.3 55568.4
 3.46 66707.8 50563.2 81242.5 67779.9 65223.6 52445.3
 3.47 64204.7 47818.2 77808.9 64189.2 62767.2 49664.9
 3.48 62179.4 45419.8 74923.5 60980.6 60933.1 47293.9
 3.49 60716.4 43433.3 72683.8 58215.1 59860.7 45417.5
 3.5 59923.8 41938.9 71216.5 55967.7 59735.5 44143.1
 3.51 59937.1 41032.8 70684.3 54330 60800.2 43603.8
 3.52 60919.7 40825.3 71291.8 53411 63361.6 43958.6
 3.53 63051.8 41433.1 73283 53332.1 67775.8 45380.2
 3.54 66486.9 42949.8 76913.4 54209.7 74361.1 48006.6
 3.55 71230.6 45375 82355.1 56104.8 83137.7 51812.9
 3.56 76900.5 48483.6 89469.7 58918.8 93282.5 56363.2
 3.57 82465.3 51700.3 97422.5 62237 102523 60573.1
 3.58 86453.8 54255.8 104405 65260.6 107609 63007.9
 3.59 88044.4 55802.1 108222 67142.5 106751 63027.4
 3.6 87947.4 56836.3 107964 67704.4 101470 61494.7
 3.61 87681.2 58217.3 104906 67666.2 94935.1 59876.8
 3.62 88301 60452.4 101244 67963.5 89422.2 59102.4
 3.63 90042.6 63546.7 98479.2 69079.7 85718.1 59380.5
 3.64 92637.4 67217.7 97057.4 70988.8 83719 60526.8
 3.65 95650.9 71099.9 96774.2 73394.4 83009 62239.2
 3.66 98662.8 74850.5 97196.2 75934.4 83146.6 64227
 3.67 101337 78192.4 97891.3 78287.9 83763 66253.8
 3.68 103442 80929.3 98522.2 80217.1 84582.8 68144.6
 3.69 104853 82946.3 98868.9 81576.8 85417.5 69780.7
 3.7 105534 84202 98822.4 82305.8 86151.9 71091.6
