 Energy(eV)     Ext/Sca_Zpol     Ext/Sca_Ypol     Ext/Sca_Xpol
 2.7 26201.9 24397 26355 24795.8 25149.3 23642.3
 2.71 27201.1 25325.3 27192.5 25574.3 25790.1 24236.5
 2.72 28248.7 26298.4 28058.8 26379.1 26452.1 24849.7
 2.73 29346.2 27317.9 28955 27211.2 27136.4 25483
 2.74 30495.6 28385.3 29882.5 28071.9 27844.2 26137.5
 2.75 31698.3 29502.3 30842.3 28962.1 28577 26814.4
 2.76 32956.1 30670.1 31836 29883.1 29336 27515.1
 2.77 34270.5 31890.3 32864.9 30836.1 30122.9 28240.8
 2.78 35643 33164 33930.4 31822.4 30939.3 28992.9
 2.79 37075 34492.7 35034.1 32843.5 31786.9 29773.2
 2.8 38567.9 35877.2 36177.7 33900.6 32667.6 30583.1
 2.81 40122.8 37318.7 37362.6 34995.3 33583.3 31424.5
 2.82 41740.9 38818 38590.8 36129 34536.3 32299.2
 2.83 43422.9 40375.7 39864 37303.5 35528.7 33209.3
 2.84 45169.8 41992.5 41184.2 38520.3 36563.1 34157
 2.85 46982 43668.6 42553.2 39781.1 37642.1 35144.4
 2.86 48860 45404.1 43973.2 41087.7 38768.4 36174.1
 2.87 50803.8 47198.9 45446.3 42441.9 39945.1 37248.6
 2.88 52813.4 49052.7 46974.7 43845.6 41175.3 38370.9
 2.89 54888.5 50964.8 48560.7 45300.7 42462.6 39543.8
 2.9 57028.5 52934.3 50206.7 46809.2 43810.6 40770.6
 2.91 59232.5 54960.1 51915.2 48373.1 45223.2 42054.7
 2.92 61499.5 57040.6 53688.6 49994.5 46704.7 43399.6
 2.93 63828 59174 55529.5 51675.3 48259.7 44809.4
 2.94 66216.6 61358.4 57440.6 53417.8 49893 46288
 2.95 68663.2 63591.3 59424.7 55223.9 51609.8 47840
 2.96 71165.8 65870 61484.4 57095.8 53415.8 49470
 2.97 73722.4 68191.8 63622.6 59035.4 55316.8 51182.9
 2.98 76330.4 70553.5 65842.2 61044.8 57319.4 52984
 2.99 78987.7 72951.9 68146 63125.9 59430.3 54879
 3 81691.9 75383.7 70537.1 65280.4 61657 56873.7
 3.01 84441.2 77845.7 73018.3 67510.1 64007.4 58974.3
 3.02 87233.8 80334.7 75592.7 69816.6 66489.8 61187.6
 3.03 90068.8 82847.9 78263.5 72201.3 69113.4 63520.3
 3.04 92945.9 85382.9 81033.9 74665.3 71888 65979.8
 3.05 95866.3 87938 83907.4 77210 74824 68573.7
 3.06 98832.5 90512.7 86887.9 79836.1 77932.9 71310.1
 3.07 101849 93107.4 89979.6 82544.7 81227.1 74197.4
 3.08 104924 95724.5 93187.8 85336.7 84720.1 77244.4
 3.09 108067 98368.5 96518.7 88213.2 88427.1 80460.6
 3.1 111294 101047 99980.4 91176 92365 83855.9
 3.11 114626 103770 103584 94227.5 96553.3 87441.2
 3.12 118091 106554 107344 97372.1 101015 91228.7
 3.13 121726 109420 111280 100617 105776 95232.3
 3.14 125579 112395 115422 103971 110871 99468.3
 3.15 129715 115517 119810 107453 116342 103957
 3.16 134215 118834 124500 111088 122242 108724
 3.17 139184 122405 129573 114914 128641 113804
 3.18 144751 126306 135142 118988 135631 119239
 3.19 151074 130623 141365 123391 143329 125089
 3.2 158328 135446 148449 128233 151879 131424
 3.21 166676 140851 156658 133656 161442 138322
 3.22 176198 146844 166270 139810 172150 145845
 3.23 186733 153262 177461 146785 184001 153969
 3.24 197613 159610 190014 154441 196641 162459
 3.25 207338 164887 202809 162114 209049 170679
 3.26 213546 167625 213398 168364 219362 177479
 3.27 213841 166461 218562 171303 225309 181459
 3.28 207426 161125 216360 169792 225451 181717
 3.29 195928 152814 207788 164402 220209 178486
 3.3 182234 143369 195807 156857 211464 172894
 3.31 168736 134209 183146 148746 201251 166173
 3.32 156650 125990 171286 140933 190909 159135
 3.33 146270 118818 160678 133686 181023 152139
 3.34 137432 112540 151259 126976 171718 145267
 3.35 129824 106934 142796 120676 162914 138487
 3.36 123138 101799 135049 114662 154487 131744
 3.37 117122 96974.8 127826 108836 146333 125001
 3.38 111587 92352.5 120991 103139 138387 118249
 3.39 106403 87861.4 114462 97541.2 130623 111504
 3.4 101488 83463.5 108198 92041.2 123051 104805
 3.41 96797.7 79145.8 102189 86655.4 115702 98202.1
 3.42 92314.1 74914 96451.5 81415.5 108624 91754.8
 3.43 88042.8 70788.2 91021 76364.7 101875 85526.1
 3.44 84006.9 66799.8 85950.1 71555.2 95521.8 79580.6
 3.45 80244.2 62989.5 81305.7 67047.3 89636.6 73983.7
 3.46 76806.1 59406.3 77170.7 62908.8 84298.5 68801.8
 3.47 73757.4 56107.6 73645.1 59216.6 79596.7 64104.2
 3.48 71178 53159.7 70851.2 56058.1 75634.7 59965.9
 3.49 69165.3 50639.5 68940 53535.1 72537.6 56471.8
 3.5 67838.3 48636.4 68100.4 51767.5 70462.1 53722.2
 3.51 67341.9 47254.5 68568.9 50897.7 69608.6 51839
 3.52 67849.7 46613.2 70633.9 51090.7 70234.3 50972
 3.53 69557.8 46842.7 74615.2 52520.3 72658.9 51301.2
 3.54 72650.4 48063.8 80773.5 55316.2 77238.1 53020.7
 3.55 77197.9 50330.8 89056.5 59426.3 84237.6 56272.4
 3.56 82942.2 53516.3 98606.3 64360.7 93483.2 60965.9
 3.57 89028.5 57172.6 107273 68963.8 103712 66453
 3.58 94076.3 60579.5 112130 71734.1 112132 71317.3
 3.59 97025.1 63195.7 111614 71962.1 115633 74003.3
 3.6 98045.8 65116.5 107065 70452.7 113586 74213.9
 3.61 98216.7 66873.1 101312 68699 108442 73164.4
 3.62 98492 68888.8 96468.8 67733.1 103128 72254.5
 3.63 99241.9 71256.8 93329 67863.1 99162.1 72141
 3.64 100396 73832.3 91839.2 68953.5 96776.6 72825.4
 3.65 101700 76379.6 91613.6 70705.3 95616.6 74023.1
 3.66 102882 78667.2 92209.9 72801.1 95200.9 75401.9
 3.67 103728 80512.9 93236.7 74962.8 95111.1 76682.2
 3.68 104105 81800.1 94386 76969.1 95044.4 77666.8
 3.69 103960 82476.1 95435.6 78658.4 94813.3 78238.7
 3.7 103307 82543.2 96243.2 79925.7 94327.1 78349.3
