 Energy(eV)     Ext/Sca_Zpol     Ext/Sca_Ypol     Ext/Sca_Xpol
 2.7 35564.2 33440.9 25070.8 23299.7 16350.1 15042.4
 2.71 36630.3 34440.4 25750.4 23926.2 16858.3 15501.5
 2.72 37724.3 35465.3 26453.3 24573.9 17389 15980.7
 2.73 38846.7 36515.9 27180.8 25243.9 17943.6 16481
 2.74 39997.8 37592.5 27933.9 25937 18523.4 17003.9
 2.75 41178.3 38695.7 28713.9 26654.5 19130.1 17550.7
 2.76 42388.5 39825.7 29522 27397.3 19765.2 18122.7
 2.77 43629.1 40982.8 30359.6 28166.8 20430.6 18721.7
 2.78 44900.4 42167.5 31228 28964.2 21128.2 19349.3
 2.79 46202.9 43379.9 32128.9 29790.8 21860 20007.3
 2.8 47537.1 44620.4 33063.8 30647.9 22628.4 20697.6
 2.81 48903.4 45889.2 34034.5 31537.2 23435.7 21422.5
 2.82 50302.4 47186.7 35042.6 32460.1 24284.5 22184.1
 2.83 51734.5 48513.1 36090.1 33418.3 25177.8 22985.1
 2.84 53200.2 49868.6 37179 34413.5 26118.5 23827.9
 2.85 54700 51253.5 38311.5 35447.7 27110 24715.7
 2.86 56234.6 52668.1 39489.9 36522.7 28155.9 25651.4
 2.87 57804.4 54112.6 40716.5 37640.7 29260.2 26638.6
 2.88 59410.1 55587.3 41993.8 38803.7 30427.1 27681
 2.89 61052.5 57092.5 43324.7 40014.2 31661.4 28782.5
 2.9 62732.3 58628.7 44712 41274.5 32968 29947.6
 2.91 64450.5 60196.1 46158.8 42587.2 34352.6 31181
 2.92 66208.2 61795.4 47668.3 43955.1 35821.2 32488
 2.93 68006.7 63427.2 49243.9 45380.9 37380.5 33874.3
 2.94 69847.4 65092.2 50889.4 46867.6 39037.8 35346.2
 2.95 71732.2 66791.5 52608.6 48418.6 40801 36910.3
 2.96 73663.2 68526.2 54405.7 50036.9 42679 38574.2
 2.97 75643 70297.9 56285.1 51726.3 44681.3 40346
 2.98 77674.8 72108.3 58251.5 53490.2 46818.6 42234.7
 2.99 79762.3 73959.8 60310 55332.6 49102.5 44249.9
 3 81910.1 75855.3 62465.8 57257.5 51546 46402.5
 3.01 84123.7 77798.2 64724.7 59269.1 54163.1 48704.2
 3.02 86409.9 79792.8 67092.9 61371.8 56969.7 51167.9
 3.03 88776.6 81844.4 69577 63570.1 59982.9 53807.7
 3.04 91233.9 83959.4 72184.1 65868.9 63221.9 56639.1
 3.05 93793.4 86145.7 74922 68273.2 66707.7 59679
 3.06 96469.8 88412.9 77799.3 70788.3 70463.9 62945.8
 3.07 99280.6 90772.5 80825.6 73419.7 74516.1 66459.7
 3.08 102247 93238.6 84011.6 76173.4 78892.8 70242.5
 3.09 105395 95828.3 87369.7 79056 83625.4 74317.7
 3.1 108755 98562 90914.4 82074.7 88748.4 78710.6
 3.11 112367 101465 94663 85237.8 94299.8 83448.1
 3.12 116276 104565 98637 88555 100321 88558.3
 3.13 120539 107900 102863 92038.7 106857 94070.1
 3.14 125224 111510 107377 95704.3 113956 100012
 3.15 130411 115443 112225 99572.5 121669 106413
 3.16 136196 119752 117470 103672 130048 113295
 3.17 142688 124496 123197 108042 139147 120676
 3.18 150004 129727 129527 112738 149013 128563
 3.19 158255 135482 136621 117839 159684 136941
 3.2 167513 141751 144701 123451 171173 145770
 3.21 177749 148430 154047 129710 183455 154970
 3.22 188710 155233 164965 136761 196433 164405
 3.23 199734 161574 177658 144686 209889 173867
 3.24 209499 166436 191889 153314 223408 183053
 3.25 215887 168378 206355 161884 236250 191522
 3.26 216383 165941 218161 168760 247241 198634
 3.27 209423 158595 223601 171887 254867 203579
 3.28 195943 147530 220815 170261 257847 205660
 3.29 179130 135114 211524 164861 255972 204760
 3.3 162328 123432 199287 157651 250307 201471
 3.31 147494 113478 186872 150135 242427 196655
 3.32 135177 105349 175495 142958 233553 190949
 3.33 125157 98723.8 165342 136209 224273 184620
 3.34 116949 93189.2 156191 129763 214715 177690
 3.35 110068 88382.2 147739 123465 204824 170111
 3.36 104119 84031.6 139737 117199 194534 161869
 3.37 98813.6 79954.1 132023 110908 183849 153019
 3.38 93957.8 76037.4 124509 104580 172849 143686
 3.39 89429 72221.8 117171 98246.3 161675 134037
 3.4 85158.1 68484 110032 91962 150501 124261
 3.41 81113 64824.7 103143 85801.5 139510 114545
 3.42 77287.4 61260.3 96578.5 79848.2 128874 105062
 3.43 73692.4 57816.5 90422.2 74189.4 118747 95956.8
 3.44 70352.2 54526 84766.6 68912.3 109259 87351.6
 3.45 67301.7 51426.7 79708.5 64102.8 100521 79342.3
 3.46 64586 48562.6 75350.4 59845.5 92624 72005
 3.47 62262.2 45984.3 71803.5 56226.3 85652.1 65402.1
 3.48 60401.2 43752.1 69192.9 53335.5 79689.2 59589.1
 3.49 59091.8 41938 67665.4 51273.5 74831.3 54623
 3.5 58444.2 40628.9 67396.4 50155.4 71199.7 50571
 3.51 58593.1 39928.8 68594.3 50114.4 68959.1 47521.2
 3.52 59696.3 39957.3 71487.3 51293.9 68338.9 45595.2
 3.53 61918.7 40839.9 76270.4 53815.3 69658.3 44963.7
 3.54 65383.8 42675.7 82962.9 57690.1 73342.1 45859.9
 3.55 70060.5 45466.8 91128.8 62647.4 79879.3 48571
 3.56 75581.7 49002.8 99522.6 67915.3 89591.9 53344.5
 3.57 81120.7 52784.1 106060 72202.7 101959 60076.8
 3.58 85652.8 56184.9 108709 74250.5 114508 67732.8
 3.59 88687 58914.6 106965 73739.9 122834 74180.2
 3.6 90693.8 61288.4 102234 71529.4 124040 77692.8
 3.61 92565.4 63864.6 96626.9 68908.1 119943 78707.1
 3.62 94856.8 66940.3 91701.3 66819.8 114547 78921.9
 3.63 97615.2 70453.7 88151.3 65670.7 110354 79498.7
 3.64 100584 74138.5 86071 65493 107907 80691.1
 3.65 103414 77672.1 85270.7 66140.3 106806 82263.7
 3.66 105784 80762.6 85469.2 67407 106431 83853.2
 3.67 107461 83192.2 86383 69084.2 106245 85138.1
 3.68 108321 84833.2 87759.5 70980.9 105877 85896.8
 3.69 108341 85645.5 89386.8 72931.3 105117 86014.7
 3.7 107585 85660.5 91095.6 74796.4 103893 85469.4
