 Energy(eV)     Sca_L     Sca_R
 495.937 79138.7 4818.63
 493.961 83048.9 4966.3
 492.001 87215.8 5102.28
 490.056 91672 5227.53
 488.127 96456.6 5345.23
 486.212 101615 5461.82
 484.313 107200 5588.49
 482.429 113266 5743.16
 480.559 119868 5953.06
 478.703 127048 6257.93
 476.862 134816 6713.63
 475.035 143120 7395.35
 473.222 151797 8398.63
 471.423 160509 9834.8
 469.637 168682 11815.6
 467.865 175473 14422
 466.106 179832 17657.7
 464.36 180723 21403.2
 462.627 177470 25400.8
 460.908 170087 29302.3
 459.201 159364 32769.6
 457.506 146617 35575.6
 455.824 133264 37648.7
 454.154 120471 39050.5
 452.497 109008 39918
 450.851 99268.7 40409.6
 449.218 91382 40669.7
 447.596 85315.5 40813.2
 445.986 80955.8 40922.6
 444.388 78157.1 41051.1
 442.801 76765.1 41227
 441.225 76627.2 41459.2
 439.66 77597.4 41742
 438.107 79539 42059.1
 436.564 82329.1 42388
 435.032 85865 42703.4
 433.511 90071.3 42979.7
 432 94904.4 43192.4
 430.5 100349 43316.8
 429.011 106395 43324
 427.532 112989 43172.3
 426.062 119924 42795.2
 424.603 126687 42085.7
 423.154 132296 40889.9
 421.715 135367 39036.5
 420.285 134698 36441.8
 418.865 130198 33256.8
 417.455 123085 29879.6
 416.054 114895 26738.3
 414.663 106581 24076.1
 413.28 98508 21932.2
 411.907 90771.4 20237.2
 410.544 83379.6 18896.3
 409.189 76301.5 17828.8
 407.843 69479.1 16980.8
 406.505 62841.9 16325.9
 405.177 56331.2 15863.3
 403.857 49946.1 15619
 402.546 43833.6 15654.1
 401.243 38468 16101.7
 399.949 34957 17242.9
 398.663 35217.6 19445
 397.385 40516.5 22413.9
 396.115 47839 24491.1
 394.854 51915.7 24575
 393.6 51739.3 23456.7
 392.355 49426.3 22182.1
 391.117 47134.7 21207.7
 389.887 46594.3 20592.4
 388.665 49353.6 20188.7
 387.45 56408.7 19691.9
 386.243 66958.1 18715
 385.044 77760.6 17052.6
 383.852 85300.2 14932.1
 382.667 88497.9 12811.4
 381.49 88355.7 10993.1
 380.319 86271.5 9545.41
 379.156 83254.2 8417.21
 378 79886 7531.85
 376.851 76468.5 6823.36
 375.71 73145.6 6242.95
 374.574 69977.9 5756.43
 373.446 66983.4 5340.08
 372.325 64159.2 4977.37
 371.21 61492.1 4656.56
 370.102 58964.7 4369.12
 369 56557.2 4108.68
 367.905 54249 3870.28
 366.817 52018.7 3649.87
 365.735 49843.5 3443.78
 364.659 47698.9 3248.3
 363.59 45558.9 3058.74
 362.527 43400.3 2867.87
 361.47 41220.3 2662.49
 360.419 39087 2417.3
 359.374 37195.3 2094.03
 358.336 35620.1 1682.93
 357.303 34053.5 1297.27
 356.276 32898.1 1130.21
 355.255 33543.4 1219.3
 354.24 36417.9 1424.15
