 Energy(eV)     Sca_U     Sca_D
 442.801 7.67185e-06 8.16408e-05
 441.225 7.88005e-06 8.38547e-05
 439.66 8.09498e-06 8.61401e-05
 438.107 8.31693e-06 8.85001e-05
 436.564 8.54618e-06 9.09378e-05
 435.032 8.78306e-06 9.34564e-05
 433.511 9.02789e-06 9.60596e-05
 432 9.28101e-06 9.87509e-05
 430.5 9.5428e-06 0.000101534
 429.011 9.81363e-06 0.000104414
 427.532 1.00939e-05 0.000107394
 426.062 1.03841e-05 0.000110478
 424.603 1.06846e-05 0.000113673
 423.154 1.09959e-05 0.000116983
 421.715 1.13186e-05 0.000120413
 420.285 1.16531e-05 0.00012397
 418.865 1.20001e-05 0.000127659
 417.455 1.23602e-05 0.000131486
 416.054 1.2734e-05 0.00013546
 414.663 1.31222e-05 0.000139586
 413.28 1.35255e-05 0.000143873
 411.907 1.39447e-05 0.000148329
 410.544 1.43807e-05 0.000152963
 409.189 1.48343e-05 0.000157785
 407.843 1.53065e-05 0.000162804
 406.505 1.57983e-05 0.000168032
 405.177 1.63108e-05 0.000173479
 403.857 1.68452e-05 0.000179158
 402.546 1.74026e-05 0.000185083
 401.243 1.79845e-05 0.000191267
 399.949 1.85922e-05 0.000197726
 398.663 1.92273e-05 0.000204476
 397.385 1.98915e-05 0.000211534
 396.115 2.05865e-05 0.00021892
 394.854 2.13143e-05 0.000226655
 393.6 2.2077e-05 0.000234759
 392.355 2.28767e-05 0.000243258
 391.117 2.37159e-05 0.000252176
 389.887 2.45973e-05 0.000261542
 388.665 2.55237e-05 0.000271386
 387.45 2.64982e-05 0.000281741
 386.243 2.75242e-05 0.000292644
 385.044 2.86054e-05 0.000304132
 383.852 2.97458e-05 0.00031625
 382.667 3.09498e-05 0.000329042
 381.49 3.22222e-05 0.000342562
 380.319 3.35683e-05 0.000356864
 379.156 3.49938e-05 0.00037201
 378 3.65052e-05 0.000388068
 376.851 3.81095e-05 0.000405113
 375.71 3.98145e-05 0.000423227
 374.574 4.16287e-05 0.000442501
 373.446 4.35617e-05 0.000463037
 372.325 4.56242e-05 0.000484949
 371.21 4.78279e-05 0.00050836
 370.102 5.01861e-05 0.000533412
 369 5.27136e-05 0.000560263
 367.905 5.54271e-05 0.000589088
 366.817 5.83452e-05 0.000620087
 365.735 6.14891e-05 0.000653483
 364.659 6.48827e-05 0.000689533
 363.59 6.85534e-05 0.000728524
 362.527 7.25321e-05 0.000770787
 361.47 7.68545e-05 0.000816699
 360.419 8.15612e-05 0.000866694
 359.374 8.66994e-05 0.000921271
 358.336 9.23236e-05 0.000981009
 357.303 9.84973e-05 0.00104658
 356.276 0.000105294 0.00111878
 355.255 0.000112802 0.00119852
 354.24 0.000121123 0.00128689
 353.231 0.00013038 0.0013852
 352.228 0.000140718 0.001495
 351.23 0.000152312 0.00161813
 350.238 0.000165375 0.00175686
 349.251 0.000180166 0.00191395
 348.27 0.000197004 0.00209276
 347.295 0.000216284 0.00229751
 346.324 0.000238503 0.00253346
 345.36 0.000264287 0.00280727
 344.4 0.000294441 0.00312748
 343.446 0.000330007 0.00350516
 342.498 0.000372357 0.00395486
 341.554 0.00042332 0.00449601
 340.616 0.000485383 0.00515501
 339.683 0.000561986 0.00596839
 338.754 0.000657991 0.00698777
 337.831 0.000780434 0.00828783
 336.913 0.000939768 0.00997955
 336 0.00115198 0.0122327
 335.092 0.00144233 0.0153153
 334.189 0.00185201 0.0196647
 333.291 0.00245022 0.0260156
 332.397 0.00335475 0.0356181
 331.508 0.00475729 0.0505069
 330.624 0.00689643 0.0732135
 329.745 0.00968753 0.102838
 328.87 0.0117284 0.1245
 328 0.0112884 0.119833
 327.135 0.00944212 0.100242
 326.274 0.007351 0.0780481
