 Energy(eV)     Sca_up     Sca_left
 442.801 0.731238 0.00409874
 441.225 0.751421 0.00421967
 439.66 0.772295 0.00434522
 438.107 0.793889 0.00447564
 436.564 0.816238 0.00461118
 435.032 0.839376 0.00475213
 433.511 0.863341 0.00489878
 432 0.888172 0.00505144
 430.5 0.913912 0.00521046
 429.011 0.940604 0.0053762
 427.532 0.968297 0.00554905
 426.062 0.997041 0.00572943
 424.603 1.02689 0.0059178
 423.154 1.0579 0.00611465
 421.715 1.09013 0.00632051
 420.285 1.12366 0.00653594
 418.865 1.15854 0.00676157
 417.455 1.19485 0.00699807
 416.054 1.23268 0.00724617
 414.663 1.2721 0.00750666
 413.28 1.31321 0.00778041
 411.907 1.35612 0.00806834
 410.544 1.40091 0.0083715
 409.189 1.44772 0.00869101
 407.843 1.49665 0.0090281
 406.505 1.54785 0.00938412
 405.177 1.60145 0.00976057
 403.857 1.65762 0.0101591
 402.546 1.71651 0.0105815
 401.243 1.77831 0.0110298
 399.949 1.84321 0.0115062
 398.663 1.91144 0.0120132
 397.385 1.98322 0.0125536
 396.115 2.0588 0.0131305
 394.854 2.13846 0.0137473
 393.6 2.22251 0.014408
 392.355 2.31127 0.0151168
 391.117 2.40511 0.0158789
 389.887 2.50443 0.0166997
 388.665 2.60967 0.0175859
 387.45 2.72131 0.0185446
 386.243 2.83988 0.0195843
 385.044 2.96599 0.0207146
 383.852 3.10028 0.0219468
 382.667 3.2435 0.0232938
 381.49 3.39645 0.0247709
 380.319 3.56005 0.0263957
 379.156 3.73533 0.0281893
 378 3.92342 0.0301764
 376.851 4.12562 0.0323869
 375.71 4.3434 0.0348561
 374.574 4.5784 0.0376272
 373.446 4.8325 0.0407524
 372.325 5.10785 0.0442961
 371.21 5.40691 0.0483377
 370.102 5.73248 0.0529766
 369 6.08782 0.0583379
 367.905 6.47668 0.0645815
 366.817 6.90343 0.0719133
 365.735 7.37318 0.0806024
 364.659 7.89189 0.0910051
 363.59 8.46663 0.103601
 362.527 9.10575 0.119044
 361.47 9.81919 0.138247
 360.419 10.6189 0.162507
 359.374 11.5192 0.193708
 358.336 12.5376 0.234657
 357.303 13.6952 0.289651
 356.276 15.0181 0.365472
 355.255 16.5383 0.473166
 354.24 18.2953 0.631318
 353.231 20.337 0.872076
 352.228 22.7205 1.25166
 351.23 25.5074 1.86425
 350.238 28.7451 2.83545
 349.251 32.4172 4.18394
 348.27 36.4195 5.42625
 347.295 40.9561 5.703
 346.324 46.9858 5.06029
 345.36 55.0958 4.2347
 344.4 65.2401 3.6069
 343.446 77.3722 3.22047
 342.498 91.3137 3.02512
 341.554 106.293 2.95479
 340.616 120.433 2.91776
 339.683 130.553 2.78735
 338.754 133.084 2.54311
 337.831 126.378 2.37573
 336.913 112.5 2.25586
 336 95.6282 1.85926
 335.092 78.2527 1.2356
 334.189 61.6424 0.732934
 333.291 47.3137 0.433272
 332.397 36.2983 0.269804
 331.508 29.5129 0.187131
 330.624 28.2704 0.161371
 329.745 32.6842 0.18422
 328.87 38.0455 0.238684
 328 38.7227 0.305375
 327.135 35.2068 0.393429
 326.274 30.3833 0.505585
