 Energy(eV)     Sca_U     Sca_D
 495.937 7516.77 165918
 493.961 9013.73 211424
 492.001 13444.2 354297
 490.056 22751.2 821276
 488.127 4780.57 266494
 486.212 1904.94 117135
 484.313 1286.62 79160.5
 482.429 1131.36 61948.6
 480.559 1263.15 52391.2
 478.703 1477.92 46766.2
 476.862 1606.5 42429.2
 475.035 1659.09 38774.3
 473.222 1700.01 36673.7
 471.423 1810.52 37440.3
 469.637 2115.16 42820.6
 467.865 2792.84 55029.1
 466.106 4049.82 76400.5
 464.36 5998.71 108522
 462.627 8251.02 148871
 460.908 9326.21 180024
 459.201 8252.73 176404
 457.506 7137.31 157069
 455.824 7461.92 150787
 454.154 9462.02 164867
 452.497 14093.1 209766
 450.851 24339.8 321395
 449.218 33955.6 449145
 447.596 16240.6 264151
 445.986 6562.29 142606
 444.388 3668.4 97303.1
 442.801 2569.01 75549.3
 441.225 2081.68 63679.7
 439.66 1904.86 57590.7
 438.107 1993.05 56270.1
 436.564 2519.28 61449.9
 435.032 4163.11 81361.2
 433.511 9684.79 161398
 432 68379.9 1.26983e+06
 430.5 51591.6 1.50907e+06
 429.011 3970.94 213397
 427.532 2027.59 102010
 426.062 2155.26 70111.5
 424.603 2253.83 54754.2
 423.154 2057.01 44976.7
 421.715 1610.95 38972.3
 420.285 1256.54 36472.3
 418.865 1292.4 35236.5
 417.455 1496.26 32738
 416.054 1580.22 30291.6
 414.663 1611.71 30297
 413.28 1649.9 31667.6
 411.907 1607.06 31601
 410.544 1457.35 29537
 409.189 1262.44 26716.7
 407.843 1059.51 24057.7
 406.505 876.529 22235.2
 405.177 765.104 22094.5
 403.857 720.566 23371.3
 402.546 726.196 25501.5
 401.243 781.838 28531.9
 399.949 872.714 32344
 398.663 969.074 36239.5
 397.385 1047 39434.2
 396.115 1094.51 41487.2
 394.854 1104.12 42296.8
 393.6 1071.8 42250.9
 392.355 1011.88 42472.4
 391.117 995.821 43785.7
 389.887 1057.16 44723.3
 388.665 1105.73 43882.5
 387.45 1092.14 41777.7
 386.243 1027.45 38919.5
 385.044 951.978 35865.5
 383.852 949.824 34168.5
 382.667 982.702 34458
 381.49 945.01 34801.1
 380.319 926.808 34806.1
 379.156 1121.42 39840.3
 378 1510.34 48086.8
 376.851 2314.16 60946
 375.71 1868.73 55281.9
 374.574 1313.25 46100.1
 373.446 1055.78 39931.6
 372.325 1223.19 41306
 371.21 1643.17 49488.6
 370.102 1982.7 57561.3
 369 2081.88 60179.4
 367.905 1950.08 58295.3
 366.817 1730.05 54990.3
 365.735 1593.23 51489.6
 364.659 1608.24 48791.6
 363.59 1741.84 47197.3
 362.527 1914.86 46764.8
 361.47 2020.12 47693.5
 360.419 2097.21 48849.4
 359.374 2129.1 47969.3
 358.336 2008.78 45516.4
 357.303 1732.14 43086.6
 356.276 1380.76 40329.3
 355.255 1143.76 38035
 354.24 1083.26 37110.7
