 Energy(eV)     Sca_U     Sca_D
 495.937 2.02527e-06 0.000280463
 494.453 2.07872e-06 0.000287864
 492.979 2.13387e-06 0.000295502
 491.513 2.1908e-06 0.000303386
 490.056 2.24959e-06 0.000311526
 488.607 2.31029e-06 0.000319932
 487.168 2.37301e-06 0.000328616
 485.736 2.43781e-06 0.00033759
 484.313 2.50479e-06 0.000346865
 482.898 2.57405e-06 0.000356455
 481.492 2.64567e-06 0.000366374
 480.093 2.71977e-06 0.000376634
 478.703 2.79646e-06 0.000387253
 477.321 2.87584e-06 0.000398245
 475.947 2.95804e-06 0.000409628
 474.58 3.04319e-06 0.000421419
 473.222 3.13143e-06 0.000433637
 471.871 3.22289e-06 0.000446303
 470.528 3.31774e-06 0.000459437
 469.193 3.41613e-06 0.000473061
 467.865 3.51824e-06 0.0004872
 466.544 3.62424e-06 0.000501878
 465.231 3.73433e-06 0.000517122
 463.926 3.84871e-06 0.000532961
 462.627 3.9676e-06 0.000549423
 461.336 4.09123e-06 0.000566542
 460.052 4.21984e-06 0.000584352
 458.776 4.35371e-06 0.000602888
 457.506 4.4931e-06 0.000622189
 456.243 4.63831e-06 0.000642297
 454.988 4.78967e-06 0.000663256
 453.739 4.94751e-06 0.000685112
 452.497 5.1122e-06 0.000707916
 451.262 5.28412e-06 0.000731722
 450.033 5.46369e-06 0.000756587
 448.811 5.65137e-06 0.000782573
 447.596 5.84762e-06 0.000809748
 446.388 6.05296e-06 0.000838182
 445.185 6.26796e-06 0.000867952
 443.99 6.49321e-06 0.000899141
 442.801 6.72935e-06 0.000931839
 441.618 6.97708e-06 0.000966142
 440.441 7.23715e-06 0.00100215
 439.271 7.51038e-06 0.00103999
 438.107 7.79765e-06 0.00107976
 436.949 8.09992e-06 0.00112162
 435.797 8.41822e-06 0.00116569
 434.651 8.7537e-06 0.00121214
 433.511 9.10757e-06 0.00126114
 432.377 9.48119e-06 0.00131288
 431.249 9.87602e-06 0.00136755
 430.127 1.02937e-05 0.00142538
 429.011 1.07359e-05 0.00148661
 427.9 1.12047e-05 0.00155152
 426.796 1.17021e-05 0.0016204
 425.697 1.22306e-05 0.00169357
 424.603 1.27926e-05 0.00177139
 423.515 1.33911e-05 0.00185426
 422.433 1.40293e-05 0.00194262
 421.356 1.47107e-05 0.00203697
 420.285 1.54392e-05 0.00213784
 419.219 1.62192e-05 0.00224585
 418.159 1.70558e-05 0.00236167
 417.104 1.79543e-05 0.00248609
 416.054 1.89211e-05 0.00261995
 415.01 1.99632e-05 0.00276424
 413.97 2.10885e-05 0.00292005
 412.936 2.23061e-05 0.00308864
 411.907 2.36263e-05 0.00327143
 410.884 2.50609e-05 0.00347006
 409.865 2.66234e-05 0.0036864
 408.851 2.83294e-05 0.00392261
 407.843 3.01971e-05 0.0041812
 406.839 3.22473e-05 0.00446507
 405.84 3.45047e-05 0.00477761
 404.846 3.69981e-05 0.00512282
 403.857 3.97615e-05 0.00550541
 402.873 4.28352e-05 0.00593095
 401.893 4.62675e-05 0.00640613
 400.919 5.01164e-05 0.00693895
 399.949 5.44521e-05 0.00753911
 398.984 5.93598e-05 0.0082184
 398.023 6.49438e-05 0.00899119
 397.067 7.13321e-05 0.00987507
 396.115 7.86805e-05 0.0108914
 395.169 8.71784e-05 0.0120663
 394.226 9.70638e-05 0.0134324
 393.288 0.000108666 0.0150358
 392.355 0.00012246 0.0169436
 391.426 0.000139071 0.0192427
 390.501 0.000159302 0.0220438
 389.581 0.000184233 0.0254956
 388.665 0.000215379 0.0298071
 387.753 0.000254899 0.0352768
 386.846 0.000305931 0.0423378
 385.943 0.000373086 0.0516269
 385.044 0.000463183 0.0640873
 384.149 0.000586184 0.0810994
 383.259 0.000755782 0.10456
 382.372 0.000987011 0.136551
 381.49 0.00128258 0.177445
 380.611 0.00159476 0.220645
 379.737 0.00179009 0.247692
 378.867 0.00174145 0.240997
 378 0.00148194 0.20512
 377.138 0.00114184 0.158069
 376.28 0.000828732 0.114736
 375.425 0.000588148 0.0814323
 374.574 0.000418441 0.0579373
 373.728 0.000303031 0.0419581
 372.885 0.000227181 0.0314556
 372.045 0.00018205 0.0252059
 371.21 0.000164821 0.0228188
 370.378 0.000177959 0.0246349
 369.55 0.000225368 0.0311943
 368.726 0.000298554 0.041321
 367.905 0.000360173 0.0498466
 367.088 0.000371 0.0513432
 366.275 0.000336691 0.0465937
 365.465 0.000286498 0.0396463
 364.659 0.000238777 0.0330412
 363.857 0.000199122 0.0275524
 363.058 0.000167681 0.0232008
 362.262 0.000143243 0.0198198
 361.47 0.0001245 0.0172286
 360.681 0.000109947 0.0152185
 359.896 9.78059e-05 0.0135413
 359.114 8.69276e-05 0.0120369
 358.336 7.71146e-05 0.0106786
 357.561 6.84227e-05 0.00947484
 356.789 6.07999e-05 0.008419
 356.021 5.41125e-05 0.00749272
 355.255 4.82122e-05 0.00667553
 354.494 4.29688e-05 0.0059493
 353.735 3.828e-05 0.00529988
 352.98 3.40786e-05 0.00471798
 352.228 3.03432e-05 0.00420068
 351.479 2.71178e-05 0.00375415
 350.733 2.454e-05 0.00339747
 349.991 2.28787e-05 0.00316793
 349.251 2.26064e-05 0.00313096
 348.515 2.44194e-05 0.00338294
 347.782 2.86542e-05 0.00397042
 347.051 3.38078e-05 0.00468491
 346.324 3.71316e-05 0.00514548
 345.6 3.81689e-05 0.0052889
 344.879 3.89178e-05 0.00539195
 344.161 4.08642e-05 0.00566043
 343.446 4.3166e-05 0.00597806
 342.734 4.40569e-05 0.0061008
 342.025 4.31478e-05 0.00597482
 341.319 4.09595e-05 0.00567188
 340.616 3.81376e-05 0.00528117
 339.915 3.52622e-05 0.00488301
 339.218 3.26847e-05 0.00452609
 338.523 3.05283e-05 0.00422745
 337.831 2.87305e-05 0.00397844
 337.142 2.71306e-05 0.00375685
 336.456 2.56235e-05 0.0035481
 335.773 2.41957e-05 0.00335034
 335.092 2.28678e-05 0.00316644
 334.414 2.16626e-05 0.00299953
 333.739 2.05974e-05 0.00285202
 333.067 1.96746e-05 0.00272422
 332.397 1.8861e-05 0.00261156
 331.73 1.81019e-05 0.00250644
 331.066 1.73742e-05 0.00240568
 330.404 1.66834e-05 0.00231002
 329.745 1.60289e-05 0.00221938
 329.089 1.5406e-05 0.00213312
 328.435 1.48155e-05 0.00205136
 327.784 1.42593e-05 0.00197433
 327.135 1.37367e-05 0.00190197
 326.489 1.32459e-05 0.001834
 325.845 1.27846e-05 0.00177012
 325.204 1.23503e-05 0.00170998
 324.566 1.19409e-05 0.00165329
 323.93 1.15543e-05 0.00159976
 323.296 1.11886e-05 0.00154911
 322.665 1.08419e-05 0.00150111
 322.037 1.05129e-05 0.00145555
 321.411 1.02002e-05 0.00141224
 320.787 9.90251e-06 0.00137103
 320.166 9.61885e-06 0.00133175
 319.547 9.34822e-06 0.00129427
 318.93 9.08973e-06 0.00125848
 318.316 8.84258e-06 0.00122426
 317.704 8.60605e-06 0.0011915
 317.095 8.37946e-06 0.00116013
 316.488 8.16222e-06 0.00113005
 315.883 7.95376e-06 0.00110118
 315.281 7.75357e-06 0.00107346
 314.681 7.56117e-06 0.00104682
 314.083 7.37614e-06 0.0010212
 313.487 7.19806e-06 0.000996541
 312.894 7.02656e-06 0.000972794
 312.303 6.8613e-06 0.000949911
 311.714 6.70194e-06 0.000927846
 311.127 6.5482e-06 0.000906558
 310.543 6.39979e-06 0.000886008
 309.96 6.25644e-06 0.000866159
