 Energy(eV)     Sca_U     Sca_D
 495.937 1238.52 47435.6
 493.961 1314.1 50203.2
 492.001 1396.25 53230.7
 490.056 1485.61 56544.2
 488.127 1582.83 60171.3
 486.212 1688.61 64141
 484.313 1803.63 68482.9
 482.429 1928.62 73227.2
 480.559 2064.23 78403.7
 478.703 2211.11 84040.9
 476.862 2369.8 90164.7
 475.035 2540.73 96797.2
 473.222 2724.18 103955
 471.423 2920.19 111645
 469.637 3128.53 119868
 467.865 3348.63 128608
 466.106 3579.55 137836
 464.36 3819.86 147507
 462.627 4067.67 157555
 460.908 4320.59 167894
 459.201 4575.7 178419
 457.506 4829.64 189004
 455.824 5078.69 199509
 454.154 5318.86 209779
 452.497 5546.08 219657
 450.851 5756.37 228983
 449.218 5946.01 237606
 447.596 6111.77 245391
 445.986 6251.02 252226
 444.388 6361.88 258023
 442.801 6443.24 262727
 441.225 6494.78 266315
 439.66 6516.93 268793
 438.107 6510.7 270195
 436.564 6477.63 270579
 435.032 6419.58 270021
 433.511 6338.58 268609
 432 6236.76 266442
 430.5 6116.21 263620
 429.011 5978.96 260243
 427.532 5826.97 256410
 426.062 5662.12 252213
 424.603 5486.28 247740
 423.154 5301.3 243070
 421.715 5109.1 238275
 420.285 4911.69 233418
 418.865 4711.29 228553
 417.455 4510.35 223727
 416.054 4311.74 218975
 414.663 4118.81 214325
 413.28 3935.44 209796
 411.907 3765.96 205396
 410.544 3614.9 201132
 409.189 3486.61 197004
 407.843 3384.72 193013
 406.505 3311.62 189157
 405.177 3268.05 185440
 403.857 3253.05 181864
 402.546 3264.05 178430
 401.243 3297.24 175136
 399.949 3348.04 171975
 398.663 3411.56 168936
 397.385 3482.97 166005
 396.115 3557.76 163164
 394.854 3631.95 160394
 393.6 3702.23 157678
 392.355 3765.93 155000
 391.117 3821.06 152345
 389.887 3866.26 149702
 388.665 3900.72 147064
 387.45 3924.11 144426
 386.243 3936.48 141785
 385.044 3938.17 139140
 383.852 3929.77 136493
 382.667 3911.99 133847
 381.49 3885.66 131206
 380.319 3851.65 128574
 379.156 3810.83 125957
 378 3764.07 123359
 376.851 3712.19 120786
 375.71 3655.98 118244
 374.574 3596.16 115737
 373.446 3533.37 113272
 372.325 3468.23 110855
 371.21 3401.25 108491
 370.102 3332.9 106188
 369 3263.56 103953
 367.905 3193.51 101797
 366.817 3122.95 99731.6
 365.735 3051.89 97771
 364.659 2980.12 95935.3
 363.59 2907.04 94250.2
 362.527 2831.42 92749.9
 361.47 2750.98 91477.9
 360.419 2661.8 90485
 359.374 2557.91 89812.2
 358.336 2432.8 89433.7
 357.303 2287.68 89099.2
 356.276 2146.21 88075.3
 355.255 2037.91 85287.4
 354.24 1947.33 80594.5
