 Energy(eV)     Ext/Sca_Zpol     Ext/Sca_Ypol     Ext/Sca_Xpol
 2.7 18748.1 17374.4 16400 15164.9 18131.6 16731.2
 2.71 19376.6 17956.2 16886.8 15617.9 18801 17353.5
 2.72 20031.3 18562.1 17391.6 16087.7 19496.4 18000
 2.73 20713.2 19193.2 17915.3 16574.9 20218.8 18671.5
 2.74 21423.5 19850.4 18458.8 17080.2 20969.3 19369.1
 2.75 22163.3 20534.7 19022.8 17604.5 21749 20093.7
 2.76 22933.6 21247.3 19608.3 18148.6 22559 20846.2
 2.77 23735.7 21989 20216.4 18713.4 23400.2 21627.8
 2.78 24570.8 22761.1 20847.9 19299.8 24274 22439.5
 2.79 25440.2 23564.7 21504.1 19908.8 25181.5 23282.2
 2.8 26345.1 24400.8 22186 20541.4 26123.9 24157.3
 2.81 27286.7 25270.7 22894.8 21198.7 27102.4 25065.6
 2.82 28266.6 26175.5 23631.8 21881.7 28118.3 26008.4
 2.83 29286 27116.4 24398.2 22591.8 29173 26986.9
 2.84 30346.2 28094.7 25195.4 23330 30267.6 28002.1
 2.85 31448.8 29111.6 26024.9 24097.7 31403.6 29055.4
 2.86 32595.2 30168.3 26888.2 24896.3 32582.3 30147.8
 2.87 33786.9 31266.1 27786.9 25727 33805 31280.6
 2.88 35025.2 32406.3 28722.6 26591.5 35073.1 32455
 2.89 36311.8 33590.1 29697.1 27491.3 36388 33672.2
 2.9 37648.2 34818.9 30712.1 28427.9 37751.1 34933.3
 2.91 39035.8 36093.8 31769.7 29403.1 39163.7 36239.5
 2.92 40476.3 37416.2 32871.8 30418.6 40627.2 37591.9
 2.93 41971.1 38787.3 34020.5 31476.2 42142.8 38991.6
 2.94 43521.8 40208.3 35218 32577.9 43712 40439.8
 2.95 45130 41680.5 36466.6 33725.7 45335.8 41937.3
 2.96 46797.1 43204.9 37768.7 34921.6 47015.6 43485.1
 2.97 48524.8 44782.8 39126.8 36167.7 48752.5 45084.1
 2.98 50314.5 46415.2 40543.6 37466.3 50547.6 46735
 2.99 52167.8 48103.2 42021.7 38819.7 52401.8 48438.5
 3 54086.1 49847.7 43563.9 40230.3 54316.1 50195.2
 3.01 56070.9 51649.8 45173.4 41700.6 56291.2 52005.4
 3.02 58123.8 53510.2 46853.1 43232.9 58328 53869.4
 3.03 60246.1 55429.9 48606.2 44830.1 60426.9 55787.4
 3.04 62439.5 57409.5 50436.1 46494.7 62588.5 57759.3
 3.05 64705.5 59449.9 52346.2 48229.5 64813 59784.9
 3.06 67045.7 61551.8 54340.2 50037.3 67100.9 61863.7
 3.07 69461.9 63715.8 56421.9 51920.9 69452.1 63995.3
 3.08 71955.9 65942.8 58595.1 53883.4 71866.8 66178.8
 3.09 74529.9 68233.5 60864.1 55927.7 74345 68413.3
 3.1 77186.4 70588.9 63233.1 58056.9 76886.7 70697.8
 3.11 79928.3 73010.1 65706.9 60274.2 79492 73031.1
 3.12 82758.9 75498.7 68290.5 62582.9 82161.2 75411.9
 3.13 85682.5 78056.4 70989 64986.5 84894.8 77839.2
 3.14 88704.5 80685.9 73808.6 67488.8 87693.9 80311.9
 3.15 91831.2 83390.4 76755.6 70093.6 90560.1 82829.2
 3.16 95070.8 86174.3 79837.6 72805.6 93496.2 85390.9
 3.17 98433.8 89043.4 83063.1 75629.8 96506.2 87997.4
 3.18 101933 92005.4 86442.2 78572.2 99595.9 90650.4
 3.19 105585 95070.1 89986.8 81639.8 102774 93352.8
 3.2 109410 98250.4 93711.5 84841.4 106051 96109.9
 3.21 113434 101563 97634 88187.8 109444 98929.3
 3.22 117690 105028 101776 91692.7 112973 101823
 3.23 122218 108673 106165 95373.4 116667 104806
 3.24 127068 112530 110835 99251.7 120564 107902
 3.25 132300 116640 115827 103355 124712 111140
 3.26 137986 121051 121190 107718 129172 114559
 3.27 144212 125818 126984 112381 134025 118211
 3.28 151071 131003 133274 117390 139365 122157
 3.29 158658 136667 140128 122796 145305 126471
 3.3 167059 142856 147605 128643 151968 131236
 3.31 176315 149586 155734 134956 159469 136526
 3.32 186376 156797 164480 141718 167874 142385
 3.33 197028 164305 173704 148832 177134 148775
 3.34 207792 171729 183106 156088 186969 155500
 3.35 217837 178439 192200 163136 196744 162117
 3.36 225971 183559 200336 169495 205395 167884
 3.37 230822 186119 206810 174631 211545 171841
 3.38 231269 185376 211039 178089 213920 173098
 3.39 226967 181176 212735 179620 211913 171231
 3.4 218588 174087 211983 179246 205906 166505
 3.41 207539 165163 209167 177223 197065 159730
 3.42 195363 155507 204831 173931 186795 151884
 3.43 183278 145962 199526 169768 176282 143786
 3.44 172028 137023 193717 165081 166309 135978
 3.45 161960 128905 187761 160136 157305 128753
 3.46 153173 121657 181911 155127 149472 122248
 3.47 145644 115249 176350 150197 142900 116522
 3.48 139312 109631 171221 145455 137657 111621
 3.49 134121 104765 166649 140995 133840 107608
 3.5 130049 100640 162764 136911 131595 104585
 3.51 127101 97270.6 159702 133296 131125 102690
 3.52 125302 94690.1 157602 130242 132639 102077
 3.53 124645 92917.3 156581 127828 136254 102846
 3.54 125017 91906.4 156681 126080 141774 104921
 3.55 126092 91480.9 157774 124928 148391 107859
 3.56 127266 91296 159447 124147 154471 110727
 3.57 127772 90917.4 160931 123332 157868 112276
 3.58 127046 90048.7 161219 121997 156979 111569
 3.59 125090 88748 159481 119805 151821 108611
 3.6 122465 87395.7 155567 116817 143947 104302
 3.61 119891 86432.4 150128 113483 135328 99772.9
 3.62 117868 86118.1 144198 110363 127394 95817.5
 3.63 116549 86464.5 138635 107822 120798 92760
 3.64 115821 87302.3 133858 105935 115628 90586.9
 3.65 115446 88384.5 129899 104556 111685 89119.4
 3.66 115167 89465.7 126570 103448 108673 88133.2
 3.67 114771 90347.2 123623 102379 106309 87421.4
 3.68 114113 90892.3 120836 101170 104356 86818.9
 3.69 113110 91025.1 118054 99713.3 102634 86206.7
 3.7 111738 90720.3 115190 97965.1 101021 85507
