 Energy(eV)     Ext/Sca_Zpol     Ext/Sca_Ypol     Ext/Sca_Xpol
 2.7 21127.6 19738.3 17610.9 16535.4 21727.1 20363.4
 2.71 21722.6 20292.2 18154.9 17045.6 22363 20960.5
 2.72 22331.7 20858.8 18717.8 17573.2 23014.7 21572.3
 2.73 22955.3 21438.5 19300.2 18118.7 23682.6 22198.9
 2.74 23594 22031.5 19902.9 18682.8 24367.1 22840.7
 2.75 24248 22638.4 20526.5 19266.2 25068.3 23497.9
 2.76 24918.2 23259.5 21172 19869.6 25786.7 24170.9
 2.77 25604.8 23895.4 21840.2 20493.8 26522.7 24859.8
 2.78 26308.8 24546.6 22531.8 21139.5 27276.6 25565.1
 2.79 27030.6 25213.7 23247.8 21807.5 28048.9 26287.1
 2.8 27771.1 25897.2 23989.2 22498.7 28839.8 27026
 2.81 28531.1 26598 24756.9 23213.9 29649.9 27782.3
 2.82 29311.4 27316.8 25551.9 23954 30479.6 28556.3
 2.83 30113.1 28054.4 26375.2 24720 31329.3 29348.3
 2.84 30937.3 28811.8 27228 25512.7 32199.4 30158.7
 2.85 31785 29589.9 28111.4 26333.2 33090.6 30988
 2.86 32657.5 30389.7 29026.6 27182.6 34003.3 31836.5
 2.87 33556.2 31212.6 29974.7 28061.8 34938 32704.6
 2.88 34482.6 32059.8 30957.1 28972.1 35895.3 33592.9
 2.89 35438.4 32932.6 31975.1 29914.5 36875.8 34501.7
 2.9 36425.2 33832.6 33030.1 30890.2 37880.2 35431.5
 2.91 37444.9 34761.4 34123.5 31900.6 38909.1 36383
 2.92 38499.7 35720.8 35256.8 32946.7 39963.2 37356.5
 2.93 39591.8 36712.8 36431.5 34030.1 41043.3 38352.7
 2.94 40723.7 37739.5 37649.3 35152 42150.2 39372.2
 2.95 41897.9 38803 38911.8 36313.8 43284.7 40415.6
 2.96 43117.3 39906 40220.9 37517.1 44447.7 41483.7
 2.97 44385.1 41050.9 41578.2 38763.2 45640.3 42577
 2.98 45704.6 42240.8 42985.7 40053.9 46863.6 43696.5
 2.99 47079.4 43478.7 44445.4 41390.6 48118.5 44842.8
 3 48513.5 44768 45959.4 42775 49406.5 46017
 3.01 50011.1 46112.2 47529.8 44209 50728.9 47220.1
 3.02 51576.8 47515.2 49158.8 45694.2 52087.1 48452.9
 3.03 53215.5 48981.2 50848.9 47232.5 53482.8 49716.8
 3.04 54932.5 50514.7 52602.6 48825.9 54917.8 51012.9
 3.05 56733.7 52120.4 54422.5 50476.3 56394.1 52342.6
 3.06 58625.3 53803.6 56311.4 52186 57914 53707.6
 3.07 60613.9 55569.6 58272.4 53957 59479.9 55109.4
 3.08 62706.8 57424.5 60308.6 55791.7 61094.6 56550
 3.09 64911.7 59374.4 62423.5 57692.6 62761.4 58031.6
 3.1 67237 61426.1 64621 59662.5 64484 59556.7
 3.11 69691.7 63586.7 66905.3 61704.1 66266.4 61128.1
 3.12 72285.4 65863.7 69280.8 63820.7 68113.6 62749.1
 3.13 75028.7 68265.1 71752.9 66015.7 70031.2 64423.4
 3.14 77932.8 70799.6 74327.3 68293.1 72025.8 66155.6
 3.15 81009.9 73476 77010.8 70657.4 74105.3 67950.8
 3.16 84273.3 76303.9 79811 73113.6 76278.7 69815.4
 3.17 87737.4 79293.6 82737.2 75667.8 78557.3 71756.8
 3.18 91418 82455.9 85799.8 78327.1 80954.1 73784
 3.19 95332.5 85802.4 89011.7 81099.8 83485.3 75908
 3.2 99500.4 89345.6 92388.1 83996.1 86170.3 78142
 3.21 103944 93099.2 95947.4 87028.4 89032.7 80502.4
 3.22 108687 97078.5 99712.1 90211.8 92101.6 83009.3
 3.23 113760 101300 103710 93564.9 95412.5 85687.3
 3.24 119194 105784 107973 97110.4 99009.1 88566.9
 3.25 125031 110551 112545 100877 102945 91685.4
 3.26 131314 115628 117473 104898 107284 95088.4
 3.27 138097 121042 122819 109216 112103 98830.4
 3.28 145438 126825 128653 113880 117493 102975
 3.29 153396 133005 135058 118947 123553 107595
 3.3 162021 139602 142123 124479 130383 112760
 3.31 171325 146609 149935 130537 138064 118533
 3.32 181248 153962 158560 137163 146625 124934
 3.33 191577 161493 168007 144360 155978 131906
 3.34 201865 168867 178175 152048 165844 139250
 3.35 211354 175538 188767 160003 175663 146566
 3.36 219002 180769 199212 167800 184578 153237
 3.37 223712 183800 208629 174785 191553 158508
 3.38 224744 184134 215920 180148 195671 161701
 3.39 222076 181783 220049 183123 196491 162478
 3.4 216432 177272 220418 183267 194236 160976
 3.41 208917 171377 217135 180656 189668 157727
 3.42 200589 164823 210947 175833 183755 153418
 3.43 192200 158118 202927 169578 177368 148672
 3.44 184174 151541 194104 162639 171140 143944
 3.45 176700 145215 185261 155581 165458 139512
 3.46 169837 139181 176890 148754 160529 135524
 3.47 163601 133460 169263 142348 156459 132055
 3.48 158011 128081 162520 136455 153312 129150
 3.49 153115 123100 156752 131130 151150 126852
 3.5 148997 118601 152066 126443 150057 125219
 3.51 145775 114699 148626 122504 150131 124323
 3.52 143584 111522 146671 119485 151454 124227
 3.53 142535 109186 146508 117616 154021 124938
 3.54 142645 107748 148437 117149 157617 126330
 3.55 143728 107131 152545 118229 161667 128043
 3.56 145289 107055 158343 120666 165155 129442
 3.57 146536 107053 164352 123656 166808 129740
 3.58 146637 106630 168186 125775 165625 128349
 3.59 145155 105536 167702 125651 161469 125249
 3.6 142285 103891 162574 122949 155179 121030
 3.61 138630 102034 154451 118550 148067 116555
 3.62 134791 100272 145556 113731 141283 112534
 3.63 131126 98747.5 137427 109382 135499 109342
 3.64 127747 97447.7 130665 105834 130924 107045
 3.65 124615 96276.3 125262 103046 127468 105514
 3.66 121634 95115.8 120949 100821 124900 104539
 3.67 118707 93866.2 117411 98941.6 122955 103898
 3.68 115766 92459.8 114375 97229.8 121387 103396
 3.69 112771 90862.7 111641 95559.3 119996 102878
 3.7 109710 89068.8 109071 93850.6 118633 102232
