 Energy(eV)     Ext     Sca
 2.8 11.9193 2.57877
 2.81 12.2324 2.64913
 2.82 12.5565 2.72183
 2.83 12.8921 2.79698
 2.84 13.2397 2.87469
 2.85 13.5999 2.95507
 2.86 13.9734 3.03824
 2.87 14.3607 3.12434
 2.88 14.7625 3.21349
 2.89 15.1796 3.30585
 2.9 15.6126 3.40157
 2.91 16.0625 3.5008
 2.92 16.5301 3.60373
 2.93 17.0163 3.71054
 2.94 17.5221 3.82142
 2.95 18.0485 3.93658
 2.96 18.5967 4.05624
 2.97 19.1678 4.18064
 2.98 19.7631 4.31003
 2.99 20.3841 4.44468
 3 21.0321 4.58489
 3.01 21.7088 4.73095
 3.02 22.4158 4.8832
 3.03 23.1549 5.042
 3.04 23.9281 5.20772
 3.05 24.7376 5.38078
 3.06 25.5855 5.56162
 3.07 26.4743 5.75071
 3.08 27.4068 5.94856
 3.09 28.3856 6.15572
 3.1 29.4141 6.3728
 3.11 30.4954 6.60044
 3.12 31.6333 6.83933
 3.13 32.8319 7.09025
 3.14 34.0953 7.35401
 3.15 35.4285 7.63151
 3.16 36.8365 7.92374
 3.17 38.325 8.23176
 3.18 39.9004 8.55675
 3.19 41.5694 8.89998
 3.2 43.3395 9.26287
 3.21 45.2192 9.64694
 3.22 47.2176 10.0539
 3.23 49.3448 10.4857
 3.24 51.6123 10.9443
 3.25 54.0326 11.432
 3.26 56.6197 11.9514
 3.27 59.3893 12.5054
 3.28 62.3591 13.0971
 3.29 65.5489 13.7301
 3.3 68.9809 14.4082
 3.31 72.6805 15.1361
 3.32 76.6764 15.9187
 3.33 81.0011 16.7618
 3.34 85.6922 17.6718
 3.35 90.7925 18.6561
 3.36 96.3514 19.7231
 3.37 102.426 20.8825
 3.38 109.084 22.1454
 3.39 116.402 23.5247
 3.4 124.472 25.0353
 3.41 133.404 26.6948
 3.42 143.327 28.5237
 3.43 154.396 30.5462
 3.44 166.801 32.791
 3.45 180.774 35.2925
 3.46 196.599 38.0921
 3.47 214.634 41.2399
 3.48 235.335 44.7974
 3.49 259.289 48.8402
 3.5 287.266 53.4627
 3.51 320.307 58.7839
 3.52 359.85 64.9556
 3.53 407.953 72.1745
 3.54 467.67 80.6988
 3.55 543.722 90.8721
 3.56 643.672 103.155
 3.57 779.625 118.155
 3.58 968.321 136.581
 3.59 1216.46 158.942
 3.6 1468.63 185.178
 3.61 1631.36 216.757
 3.62 1770.53 259.085
 3.63 2023.14 318.369
 3.64 2465.72 401.72
 3.65 3171.82 519.858
 3.66 4258.52 687.893
 3.67 5872.57 919.601
 3.68 8002.02 1199.07
 3.69 9923.94 1415.69
 3.7 10251.1 1388.43
 3.71 8885.06 1128.59
 3.72 6956.68 814.266
 3.73 5302.68 553.854
 3.74 4261.71 385.065
 3.75 3841.37 309.058
 3.76 3919.04 319.934
 3.77 4121.3 384.928
 3.78 3887.03 413.65
 3.79 3273.76 368.217
 3.8 2705.21 299.303
