 Energy(eV)     Ext_Z     Sca_Z     Ext_X     Sca_X
 442.801 79772.7 73525.6 41469.3 39080.6
 441.225 82854.2 76362 42587.7 40120.2
 439.66 86079.6 79330.7 43746.5 41197.4
 438.107 89454.6 82436.9 44947.3 42313.6
 436.564 92984.8 85685.6 46191.5 43470
 435.032 96675.8 89081.8 47480.6 44668.2
 433.511 100533 92630.2 48816.2 45909.4
 432 104560 96334.9 50199.7 47195.2
 430.5 108762 100200 51632.6 48526.8
 429.011 113142 104228 53116.3 49905.5
 427.532 117704 108421 54652.3 51332.8
 426.062 122447 112781 56241.9 52809.9
 424.603 127373 117307 57886.6 54338
 423.154 132480 121998 59587.5 55918.2
 421.715 137764 126850 61345.8 57551.8
 420.285 143219 131857 63162.9 59239.7
 418.865 148836 137011 65039.7 60982.9
 417.455 154604 142299 66977.3 62782.5
 416.054 160505 147707 68976.6 64639.1
 414.663 166519 153215 71038.5 66553.6
 413.28 172619 158798 73164 68526.8
 411.907 178771 164424 75353.6 70559.2
 410.544 184935 170057 77608.3 72651.6
 409.189 191061 175650 79928.6 74804.4
 407.843 197091 181151 82315.3 77018.3
 406.505 202958 186499 84769.2 79293.7
 405.177 208586 191626 87290.8 81631.3
 403.857 213896 196463 89881.1 84031.7
 402.546 218813 200941 92540.8 86495.5
 401.243 223271 205002 95271 89023.5
 399.949 227223 208607 98072.7 91616.5
 398.663 230653 211740 100947 94275.5
 397.385 233568 214408 103896 97001.5
 396.115 236003 216639 106920 99795.8
 394.854 238000 218467 110022 102660
 393.6 239601 219924 113203 105595
 392.355 240835 221033 116465 108603
 391.117 241720 221804 119811 111685
 389.887 242259 222237 123243 114844
 388.665 242451 222326 126764 118081
 387.45 242293 222067 130376 121398
 386.243 241786 221459 134082 124797
 385.044 240939 220506 137883 128280
 383.852 239771 219225 141783 131848
 382.667 238311 217638 145784 135502
 381.49 236600 215779 149888 139244
 380.319 234690 213691 154096 143074
 379.156 232647 211429 158411 146993
 378 230550 209058 162834 151001
 376.851 228494 206655 167367 155097
 375.71 226591 204315 172011 159282
 374.574 224976 202147 176767 163554
 373.446 223804 200282 181638 167914
 372.325 223254 198871 186626 172359
 371.21 223522 198084 191734 176891
 370.102 224803 198095 196969 181509
 369 227253 199058 202337 186216
 367.905 230924 201055 207842 191013
 366.817 235678 204022 213483 195896
 365.735 241097 207669 219231 200844
 364.659 246449 211445 225015 205797
 363.59 250796 214599 230718 210646
 362.527 253239 216365 236206 215257
 361.47 253207 216206 241374 219500
 360.419 250619 213956 246144 223260
 359.374 245837 209811 250428 226402
 358.336 239472 204184 254089 228741
 357.303 232188 197550 256915 230004
 356.276 224600 190354 258604 229805
 355.255 217269 183017 258752 227628
 354.24 210752 176002 256877 222843
 353.231 205578 169822 252539 214844
 352.228 202104 164874 245719 203491
 351.23 200425 161264 237566 190054
 350.238 200514 158904 231142 178228
 349.251 202351 157708 230424 173250
 348.27 205918 157640 236681 177800
 347.295 211066 158615 247081 189578
 346.324 217255 160280 258428 204298
 345.36 223268 161805 268943 218505
 344.4 227321 161924 277495 230155
 343.446 227845 159487 283463 238463
 342.498 224721 154391 286702 243424
 341.554 220093 148355 287425 245463
 340.616 217757 144731 286184 245339
 339.683 220910 146795 283836 244074
 338.754 229569 154933 281265 242619
 337.831 240379 165776 278914 241387
 336.913 249042 174988 276641 240154
 336 251949 179690 274023 238441
 335.092 247009 178778 270706 235878
 334.189 234938 172945 266525 232312
 333.291 218872 164152 261468 227746
 332.397 202063 154366 255610 222264
 331.508 186402 144783 249061 215976
 330.624 172528 135891 241944 208992
 329.745 160427 127788 234382 201411
 328.87 149862 120411 226496 193315
 328 140560 113642 218410 184768
 327.135 132279 107354 210258 175817
 326.274 124815 101423 202198 166495
