 Energy(eV)     Ext_Z     Sca_Z     Ext_X     Sca_X
 442.801 2463.24 2058.53 1835.45 1551.84
 441.225 2536.15 2118.94 1884.47 1592.96
 439.66 2611.87 2181.61 1935.14 1635.45
 438.107 2690.52 2246.66 1987.54 1679.35
 436.564 2772.27 2314.22 2041.75 1724.74
 435.032 2857.27 2384.42 2097.86 1771.68
 433.511 2945.7 2457.39 2155.95 1820.25
 432 3037.75 2533.28 2216.11 1870.52
 430.5 3133.6 2612.25 2278.45 1922.58
 429.011 3233.49 2694.47 2343.07 1976.5
 427.532 3337.62 2780.1 2410.09 2032.38
 426.062 3446.24 2869.36 2479.62 2090.31
 424.603 3559.62 2962.44 2551.79 2150.4
 423.154 3678.03 3059.55 2626.73 2212.76
 421.715 3801.77 3160.95 2704.6 2277.5
 420.285 3931.17 3266.88 2785.54 2344.75
 418.865 4066.56 3377.61 2869.71 2414.64
 417.455 4208.34 3493.44 2957.3 2487.31
 416.054 4356.89 3614.69 3048.49 2562.9
 414.663 4512.66 3741.69 3143.47 2641.58
 413.28 4676.11 3874.81 3242.47 2723.53
 411.907 4847.76 4014.44 3345.7 2808.92
 410.544 5028.15 4161.03 3453.43 2897.95
 409.189 5217.9 4315.03 3565.9 2990.83
 407.843 5417.64 4476.94 3683.4 3087.79
 406.505 5628.09 4647.31 3806.24 3189.07
 405.177 5850.01 4826.74 3934.75 3294.93
 403.857 6084.26 5015.88 4069.27 3405.66
 402.546 6331.74 5215.42 4210.18 3521.55
 401.243 6593.47 5426.13 4357.9 3642.94
 399.949 6870.54 5648.85 4512.87 3770.17
 398.663 7164.17 5884.5 4675.57 3903.63
 397.385 7475.68 6134.09 4846.52 4043.73
 396.115 7806.54 6398.7 5026.27 4190.91
 394.854 8158.36 6679.57 5215.44 4345.66
 393.6 8532.92 6978 5414.7 4508.49
 392.355 8932.2 7295.48 5624.76 4679.99
 391.117 9358.39 7633.62 5846.41 4860.76
 389.887 9813.94 7994.21 6080.49 5051.48
 388.665 10301.6 8379.24 6327.96 5252.88
 387.45 10824.3 8790.91 6589.81 5465.75
 386.243 11385.5 9231.67 6867.17 5690.96
 385.044 11989.1 9704.26 7161.25 5929.46
 383.852 12639.3 10211.7 7473.39 6182.28
 382.667 13341 10757.5 7805.05 6450.54
 381.49 14099.8 11345.4 8157.82 6735.48
 380.319 14922 11979.8 8533.47 7038.45
 379.156 15814.7 12665.6 8933.93 7360.89
 378 16786.3 13408.2 9361.3 7704.41
 376.851 17846.4 14214.2 9817.92 8070.72
 375.71 19006.2 15090.7 10306.3 8461.72
 374.574 20278.7 16046.1 10829.3 8879.4
 373.446 21679.3 17090.1 11389.8 9325.92
 372.325 23226.3 18234 11991.3 9803.57
 371.21 24941.9 19491.1 12637.2 10314.7
 370.102 26852.5 20877.3 13331.3 10861.8
 369 28990.7 22411.4 14077.6 11447
 367.905 31396.5 24116.4 14880.2 12072.6
 366.817 34119.5 26020.1 15743.3 12740.2
 365.735 37221.4 28156.7 16670.6 13450.3
 364.659 40778.6 30567.7 17665.4 14202
 363.59 44883.9 33302.7 18729.7 14991.5
 362.527 49645.4 36418.7 19863.5 15810.9
 361.47 55177.6 39973.7 21064.3 16645.3
 360.419 61574.6 44011.3 22326.7 17470.8
 359.374 68852.6 48525.8 23645.7 18253.7
 358.336 76849.5 53402.2 25030.8 18960.7
 357.303 85103.2 58340.5 26546.9 19603.3
 356.276 92810 62821.6 28392.3 20349
 355.255 99007.7 66206.8 30936.7 21641.1
 354.24 102868 67970.4 34485.4 23999.3
 353.231 103500 67860.4 38896.1 27453.9
 352.228 100191 66011.8 43736.7 31519.9
 351.23 94354 63065 48741.2 35766.3
 350.238 88029.1 59614.4 53881.7 40039.1
 349.251 81952.3 55895 59222.3 44336.3
 348.27 76182.5 51962.9 64823.5 48680.9
 347.295 70666.5 47830.2 70714.3 53066.2
 346.324 65419.7 43531.3 76890.7 57438.7
 345.36 60614.8 39173.9 83300.3 61695.3
 344.4 56668.6 35000.4 89697.6 65667.2
 343.446 54333.7 31479.4 95235.1 69026.8
 342.498 54662.5 29387.4 98615.4 71202.2
 341.554 58350.1 29553.6 99450.1 71661.5
 340.616 64042.6 31792.3 97968.3 70128.5
 339.683 67373.6 34144.4 94205.6 66618.2
 338.754 64568.4 34464.4 88515 61515.4
 337.831 57641.8 32617.6 81469.6 55101.7
 336.913 50393 29776.5 73563.8 47588.4
 336 44348.3 26824.8 65716.2 39706.3
 335.092 39690.3 24213.2 59638.8 33045.4
 334.189 36081.3 22003.1 57504.8 29977.4
 333.291 33145.2 19938.5 59953 31971.4
 332.397 30912.9 17940.3 63889.3 36843.4
 331.508 29635 16107.9 65231.7 40354.6
 330.624 29718.2 14619.2 63120.4 40699.1
 329.745 31709 13818.5 59132.8 38745.6
 328.87 35569.2 14129 54906.4 36087.4
 328 39213.8 15281.1 50699.6 33541.7
 327.135 40088.7 16129.6 46161.6 30931.6
 326.274 37923 16154.5 41809.4 28436.3
