 Energy(eV)     Ext_Z     Sca_Z     Ext_X     Sca_X
 442.801 27522.7 24816.3 17907.8 16612.4
 441.225 28405.2 25598.8 18331 16995.1
 439.66 29330.6 26418.9 18768.1 17390
 438.107 30301.6 27278.9 19219.8 17797.8
 436.564 31321.5 28181.8 19686.8 18219
 435.032 32393.4 29130.2 20170 18654.5
 433.511 33521.1 30127.6 20670.1 19104.8
 432 34708.6 31177.2 21188.2 19570.9
 430.5 35960 32282.8 21725.2 20053.6
 429.011 37280.1 33448.4 22282.1 20553.8
 427.532 38673.8 34678.5 22860.3 21072.6
 426.062 40146.5 35977.7 23460.8 21610.9
 424.603 41704.3 37351.2 24085.1 22170.1
 423.154 43353.6 38804.6 24734.7 22751.4
 421.715 45101.3 40344 25411.2 23356.3
 420.285 46955 41975.9 26116.3 23986.2
 418.865 48922.8 43707.5 26852 24642.8
 417.455 51013.8 45546.5 27620.4 25328
 416.054 53237.5 47501.1 28423.7 26043.8
 414.663 55604.3 49580.5 29264.6 26792.4
 413.28 58125.4 51794.2 30145.7 27576.3
 411.907 60812.9 54152.8 31070.2 28398
 410.544 63679.7 56667.4 32041.2 29260.6
 409.189 66739.6 59349.7 33062.5 30167.2
 407.843 70007.2 62212.5 34138.1 31121.5
 406.505 73498 65269 35272.3 32127.2
 405.177 77228.1 68532.9 36469.8 33188.6
 403.857 81214.2 72018.3 37735.8 34310.3
 402.546 85473.2 75739.8 39075.8 35497.4
 401.243 90022.1 79711.4 40495.9 36755.1
 399.949 94877.2 83947 42002.3 38089.4
 398.663 100054 88458.9 43601.8 39506.3
 397.385 105566 93258.1 45301.3 41012.2
 396.115 111423 98352.5 47107.8 42613.6
 394.854 117633 103746 49028.4 44317.2
 393.6 124195 109437 51070.1 46129.5
 392.355 131103 115418 53239.2 48056.6
 391.117 138340 121671 55541.4 50104.1
 389.887 145876 128166 57981.4 52276.7
 388.665 153665 134861 60562.7 54578
 387.45 161645 141693 63286.8 57010
 386.243 169723 148578 66153.8 59573.3
 385.044 177779 155405 69161.9 62266.5
 383.852 185650 162026 72307.4 65086.9
 382.667 193116 168249 75585.2 68029.9
 381.49 199888 173828 78989.2 71090.1
 380.319 205606 178472 82513 74261.4
 379.156 209876 181880 86150.5 77537.9
 378 212398 183849 89896.6 80914.2
 376.851 213138 184400 93748.1 84386.4
 375.71 212407 183809 97704 87952.4
 374.574 210692 182450 101766 91611.9
 373.446 208389 180593 105937 95366.8
 372.325 205675 178333 110225 99220.6
 371.21 202574 175657 114635 103178
 370.102 199063 172532 119175 107242
 369 195142 168960 123851 111417
 367.905 190855 164980 128664 115701
 366.817 186284 160665 133611 120088
 365.735 181540 156106 138680 124567
 364.659 176752 151406 143850 129116
 363.59 172063 146671 149093 133707
 362.527 167629 142009 154372 138307
 361.47 163634 137537 159652 142881
 360.419 160308 133398 164899 147398
 359.374 157961 129780 170088 151831
 358.336 157030 126960 175201 156159
 357.303 158112 125349 180223 160360
 356.276 161917 125503 185135 164406
 355.255 168944 127985 189907 168255
 354.24 178624 132847 194464 171824
 353.231 188248 138779 198655 174958
 352.228 193502 143021 202224 177401
 351.23 191651 143193 204893 178856
 350.238 183689 139136 206416 179029
 349.251 172568 132318 206523 177576
 348.27 160743 124267 204843 174033
 347.295 149492 115903 200914 167816
 346.324 139332 107685 194312 158359
 345.36 130559 99993 185033 145550
 344.4 123454 93238.9 174308 130728
 343.446 118107 87513.5 165570 117981
 342.498 114494 82640.4 163654 113390
 341.554 112744 78571.2 170482 119837
 340.616 113225 75530.8 182189 133100
 339.683 116546 74051.9 192938 146223
 338.754 123099 74740.6 199631 155507
 337.831 131908 77581.5 202426 161038
 336.913 140353 81506 202179 163333
 336 146671 85550.9 199307 162550
 335.092 151912 90296.2 194547 159533
 334.189 156849 96167.6 189074 155677
 333.291 159584 101281 183877 152098
 332.397 158752 103343 179071 148877
 331.508 155649 102181 174133 145387
 330.624 151348 98842.7 168639 141144
 329.745 144392 93899.9 162509 136067
 328.87 133313 87679.7 155868 130295
 328 120007 81037.1 148898 124018
 327.135 107430 74805.2 141767 117401
 326.274 96813.9 69249.5 134617 110566
