 Energy(eV)     Ext_Z     Sca_Z     Ext_X     Sca_X
 442.801 26497.3 24013 24234.8 22793.8
 441.225 27399.5 24826 24757.3 23277.3
 439.66 28338.8 25672 25292.3 23771.9
 438.107 29317.1 26552.4 25840.1 24278
 436.564 30336.1 27468.8 26401.1 24795.9
 435.032 31397.8 28423 26975.6 25325.7
 433.511 32504.3 29416.5 27563.9 25867.8
 432 33657.8 30451.4 28166.4 26422.5
 430.5 34860.6 31529.5 28783.5 26990
 429.011 36115.1 32652.8 29415.5 27570.6
 427.532 37424 33823.5 30062.7 28164.6
 426.062 38790 35043.8 30725.6 28772.2
 424.603 40216.1 36316.2 31404.4 29393.6
 423.154 41705.4 37643.2 32099.5 30029
 421.715 43261.3 39027.5 32811.3 30678.7
 420.285 44887.6 40472.1 33539.9 31342.8
 418.865 46588.2 41980 34285.8 32021.4
 417.455 48367.5 43554.6 35049.1 32714.5
 416.054 50230.1 45199.7 35830.2 33422.3
 414.663 52181.5 46919.2 36629.2 34144.7
 413.28 54227.4 48717.5 37446.3 34881.6
 411.907 56374.3 50599.6 38281.6 35632.9
 410.544 58629.8 52571 39135.3 36398.2
 409.189 61002.2 54637.9 40007.3 37177.3
 407.843 63501.1 56807.5 40897.7 37969.6
 406.505 66137.7 59087.8 41806.4 38774.6
 405.177 68925.1 61488.4 42733.4 39591.5
 403.857 71878.5 64020.3 43678.4 40419.4
 402.546 75015.9 66696.6 44641.5 41257.4
 401.243 78358.7 69532.7 45622.7 42104.3
 399.949 81932.4 72547 46622 42958.8
 398.663 85767.6 75761.3 47640 43819.7
 397.385 89900.8 79201.9 48677.6 44685.8
 396.115 94376 82900.2 49736.6 45556.4
 394.854 99245.5 86893.4 50820.1 46431.3
 393.6 104572 91225.5 51933.3 47311.6
 392.355 110427 95947.7 53084.6 48200.4
 391.117 116895 101118 54286.9 49104.3
 389.887 124068 106799 55560.2 50035.3
 388.665 132039 113054 56934.4 51013.7
 387.45 140892 119935 58453.5 52072.2
 386.243 150674 127464 60180.1 53260.8
 385.044 161357 135605 62199.9 54653.3
 383.852 172772 144213 64622.7 56350.7
 382.667 184530 152980 67575.9 58480
 381.49 195950 161386 71182.7 61179.9
 380.319 206052 168699 75520.7 64565.7
 379.156 213694 174087 80567.3 68676.6
 378 217886 176858 86158.7 73425.1
 376.851 218183 176736 92001.9 78587.4
 375.71 214905 174022 97752.8 83857.4
 374.574 209038 169487 103122 88941.8
 373.446 201855 164091 107946 93638.7
 372.325 194534 158699 112193 97862.5
 371.21 187938 153927 115925 101621
 370.102 182581 150126 119244 104976
 369 178694 147435 122259 108005
 367.905 176314 145851 125065 110784
 366.817 175346 145267 127734 113374
 365.735 175593 145497 130320 115820
 364.659 176761 146266 132859 118151
 363.59 178445 147206 135374 120385
 362.527 180151 147857 137881 122524
 361.47 181349 147715 140395 124569
 360.419 181607 146328 142935 126513
 359.374 180755 143422 145545 128361
 358.336 179038 139019 148316 130145
 357.303 177169 133499 151432 131974
 356.276 176215 127642 155220 134106
 355.255 177131 122621 160129 137016
 354.24 179634 119655 166377 141227
 353.231 181092 118910 173227 146629
 352.228 178115 118685 178969 151966
 351.23 170161 116932 182400 155795
 350.238 159421 113083 183615 157619
 349.251 148093 107685 183217 157632
 348.27 137300 101417 181614 156076
 347.295 127424 94735 178941 153019
 346.324 118587 87921.6 175248 148445
 345.36 110935 81236 170822 142565
 344.4 104785 75056 166704 136438
 343.446 100450 69831.3 164835 132405
 342.498 97714.1 65598 166240 132302
 341.554 95904.5 61762.3 168573 134190
 340.616 95059.6 58097.3 168453 134248
 339.683 96095.7 55409.6 165201 131341
 338.754 99548.2 54895.7 160786 127464
 337.831 103922 56638.1 157744 125345
 336.913 106030 58482.8 156853 125677
 336 105737 59032.8 156849 126921
 335.092 106337 60096 156335 127499
 334.189 110279 63616 155002 126947
 333.291 117916 69594.3 153058 125280
 332.397 127679 76966.4 150208 122307
 331.508 135188 83652.5 145740 117904
 330.624 135380 86771.5 139730 112630
 329.745 128240 85438.1 133471 107396
 328.87 117932 81304.8 128176 102653
 328 107738 76171 124416 98555.6
 327.135 98678.6 70845.2 122359 95333.9
 326.274 90360.7 65409.3 121254 92981.1
