 Energy(eV)     Ext_Z     Sca_Z     Ext_X     Sca_X
 442.801 237.178 150.388 270.309 184.54
 441.225 243.964 154.706 278.24 190.048
 439.66 251.003 159.181 286.469 195.759
 438.107 258.308 163.82 295.009 201.684
 436.564 265.893 168.631 303.878 207.833
 435.032 273.77 173.622 313.09 214.217
 433.511 281.956 178.802 322.664 220.847
 432 290.466 184.182 332.619 227.738
 430.5 299.319 189.772 342.974 234.901
 429.011 308.531 195.582 353.751 242.352
 427.532 318.122 201.624 364.973 250.105
 426.062 328.115 207.911 376.663 258.177
 424.603 338.53 214.456 388.847 266.586
 423.154 349.393 221.274 401.554 275.349
 421.715 360.728 228.379 414.812 284.487
 420.285 372.564 235.789 428.655 294.021
 418.865 384.93 243.52 443.115 303.975
 417.455 397.858 251.593 458.23 314.372
 416.054 411.383 260.027 474.04 325.239
 414.663 425.541 268.844 490.586 336.606
 413.28 440.374 278.068 507.914 348.501
 411.907 455.924 287.725 526.075 360.959
 410.544 472.237 297.842 545.121 374.015
 409.189 489.366 308.448 565.11 387.707
 407.843 507.365 319.578 586.105 402.078
 406.505 526.293 331.264 608.174 417.172
 405.177 546.216 343.547 631.39 433.04
 403.857 567.206 356.466 655.833 449.733
 402.546 589.339 370.068 681.59 467.31
 401.243 612.699 384.401 708.757 485.835
 399.949 637.381 399.52 737.436 505.375
 398.663 663.484 415.483 767.743 526.008
 397.385 691.122 432.355 799.8 547.814
 396.115 720.416 450.206 833.744 570.885
 394.854 751.503 469.115 869.725 595.32
 393.6 784.531 489.168 907.907 621.228
 392.355 819.666 510.46 948.473 648.73
 391.117 857.093 533.096 991.625 677.958
 389.887 897.015 557.192 1037.58 709.06
 388.665 939.661 582.878 1086.6 742.199
 387.45 985.285 610.299 1138.94 777.557
 386.243 1034.17 639.614 1194.91 815.334
 385.044 1086.64 671.006 1254.87 855.756
 383.852 1143.06 704.675 1319.18 899.076
 382.667 1203.82 740.851 1388.28 945.576
 381.49 1269.41 779.79 1462.65 995.574
 380.319 1340.33 821.784 1542.84 1049.43
 379.156 1417.19 867.163 1629.47 1107.54
 378 1500.68 916.305 1723.23 1170.38
 376.851 1591.6 969.64 1824.93 1238.45
 375.71 1690.84 1027.66 1935.47 1312.37
 374.574 1799.48 1090.95 2055.9 1392.81
 373.446 1918.75 1160.15 2187.43 1480.55
 372.325 2050.1 1236.05 2331.43 1576.5
 371.21 2195.24 1319.53 2489.52 1681.71
 370.102 2356.19 1411.65 2663.56 1797.38
 369 2535.38 1513.67 2855.74 1924.94
 367.905 2735.72 1627.04 3068.63 2066.05
 366.817 2960.73 1753.56 3305.24 2222.66
 365.735 3214.73 1895.34 3569.16 2397.08
 364.659 3503.04 2054.97 3864.64 2592.05
 363.59 3832.32 2235.62 4196.79 2810.85
 362.527 4210.95 2441.19 4571.72 3057.41
 361.47 4649.69 2676.56 4996.83 3336.44
 360.419 5162.53 2947.88 5481.11 3653.67
 359.374 5767.95 3263.04 6035.53 4016.05
 358.336 6490.93 3632.24 6673.5 4432.05
 357.303 7365.86 4068.99 7411.54 4912.02
 356.276 8441.31 4591.42 8269.97 5468.61
 355.255 9787.31 5224.32 9273.8 6117.18
 354.24 11506.5 6001.96 10453.6 6876.23
 353.231 13748.6 6971.33 11846.3 7767.49
 352.228 16717.2 8192.32 13494.9 8815.13
 351.23 20618.2 9719.78 15446.7 10042.9
 350.238 25392.6 11524.8 17745.7 11466.5
 349.251 30114.3 13325.8 20419.1 13081.2
 348.27 32998.8 14611 23474.3 14867.5
 347.295 33418.8 15320.4 26961.8 16883.6
 346.324 32990.2 16150.9 30913.5 19218
 345.36 33294.1 17459.8 34987.4 21616.8
 344.4 34314.6 18914.8 38484.8 23550.4
 343.446 35265.9 20013.2 40576.6 24447.2
 342.498 35421.8 20355.1 40609.3 23886.8
 341.554 34565.5 19833.6 38589.6 21900.4
 340.616 33182.4 18733.7 35486.7 19167.9
 339.683 32208.3 17569.2 32922.6 16859.2
 338.754 32244.7 16639.6 32010.2 15945.5
 337.831 32628.6 15656.7 31833.1 16073
 336.913 31800.6 14157.8 30324 15756.1
 336 28893.3 12162.9 27122.1 14351
 335.092 24361.1 9992.66 23320.7 12327.7
 334.189 19824 8008.78 19823 10240.4
 333.291 16351.8 6417.48 17039.3 8385.92
 332.397 14145.5 5285.87 15183.5 6934.48
 331.508 13142.3 4677.52 14401.4 6079.81
 330.624 12939.2 4561.06 14379.2 5931.6
 329.745 12609.8 4521.95 13962.1 6031.06
 328.87 11912.3 4194.78 12661.9 5758.84
 328 11546.2 3773.88 11219.6 5209.43
 327.135 11792.8 3569.48 10158.8 4735.12
 326.274 11845.8 3574.18 9332.22 4436.98
