 Energy(eV)     Ext     Sca
 2.8 12.4368 2.7518
 2.81 12.7765 2.83115
 2.82 13.1286 2.91331
 2.83 13.4937 2.99841
 2.84 13.8725 3.08658
 2.85 14.2656 3.17798
 2.86 14.6737 3.27275
 2.87 15.0976 3.37106
 2.88 15.5382 3.47308
 2.89 15.9962 3.579
 2.9 16.4725 3.68902
 2.91 16.9682 3.80334
 2.92 17.4843 3.9222
 2.93 18.0219 4.04582
 2.94 18.5821 4.17447
 2.95 19.1664 4.30841
 2.96 19.7759 4.44794
 2.97 20.4122 4.59336
 2.98 21.0768 4.74502
 2.99 21.7714 4.90326
 3 22.4978 5.06847
 3.01 23.258 5.24107
 3.02 24.054 5.42149
 3.03 24.8882 5.61022
 3.04 25.7628 5.80777
 3.05 26.6807 6.01469
 3.06 27.6446 6.23158
 3.07 28.6576 6.4591
 3.08 29.7231 6.69794
 3.09 30.8447 6.94887
 3.1 32.0264 7.21272
 3.11 33.2725 7.49039
 3.12 34.5878 7.78286
 3.13 35.9774 8.0912
 3.14 37.447 8.41659
 3.15 39.0028 8.7603
 3.16 40.6515 9.12375
 3.17 42.4008 9.50847
 3.18 44.2589 9.91616
 3.19 46.2349 10.3487
 3.2 48.339 10.8082
 3.21 50.5824 11.2968
 3.22 52.9778 11.8172
 3.23 55.5389 12.3722
 3.24 58.2815 12.9649
 3.25 61.2229 13.5988
 3.26 64.383 14.2779
 3.27 67.7838 15.0066
 3.28 71.4503 15.7899
 3.29 75.411 16.6334
 3.3 79.6981 17.5435
 3.31 84.3484 18.5274
 3.32 89.4043 19.5934
 3.33 94.9142 20.751
 3.34 100.934 22.011
 3.35 107.53 23.386
 3.36 114.776 24.8906
 3.37 122.763 26.5416
 3.38 131.594 28.3589
 3.39 141.393 30.3658
 3.4 152.309 32.5898
 3.41 164.519 35.0636
 3.42 178.236 37.8264
 3.43 193.722 40.9255
 3.44 211.298 44.4181
 3.45 231.361 48.3743
 3.46 254.409 52.8806
 3.47 281.076 58.0447
 3.48 312.175 64.002
 3.49 348.764 70.9248
 3.5 392.251 79.0349
 3.51 444.536 88.6216
 3.52 508.251 100.068
 3.53 587.131 113.889
 3.54 686.646 130.791
 3.55 815.075 151.762
 3.56 985.361 178.211
 3.57 1218 212.194
 3.58 1543.21 256.734
 3.59 1989.34 316.176
 3.6 2528.35 396.362
 3.61 3085.82 505.999
 3.62 3782.6 660.205
 3.63 4867.52 876.782
 3.64 6439.24 1154.43
 3.65 8160.82 1412.79
 3.66 9002.2 1461.96
 3.67 8421.77 1250.22
 3.68 7470.44 1016.47
 3.69 6947.56 915.771
 3.7 6373.87 850.47
 3.71 5323.69 708.89
 3.72 4154.24 537.546
 3.73 3206.07 393.436
 3.74 2590.68 290.708
 3.75 2284.62 227.464
 3.76 2211.61 201.358
 3.77 2178.63 201.118
 3.78 1973.26 195.185
 3.79 1700.61 172.518
 3.8 1528.4 149.387
