 Energy(eV)     Ext     Sca
 2.8 26535.7 24029.8
 2.81 27441.6 24845.2
 2.82 28385 25693.6
 2.83 29367.5 26576.6
 2.84 30391.1 27495.9
 2.85 31457.6 28453
 2.86 32569.3 29449.7
 2.87 33728.1 30487.8
 2.88 34936.6 31569.3
 2.89 36197 32696.1
 2.9 37512 33870.4
 2.91 38884.3 35094.4
 2.92 40316.8 36370.5
 2.93 41812.6 37701
 2.94 43375.1 39088.8
 2.95 45007.9 40536.6
 2.96 46714.7 42047.4
 2.97 48499.9 43624.5
 2.98 50367.9 45271.4
 2.99 52323.9 46991.9
 3 54373.4 48790.3
 3.01 56522.7 50671
 3.02 58778.7 52639.4
 3.03 61149.3 54701.2
 3.04 63643.7 56863.1
 3.05 66272.3 59132.6
 3.06 69047.2 61518.5
 3.07 71982.6 64031
 3.08 75095.2 66682.2
 3.09 78405 69486.3
 3.1 81935.6 72460.1
 3.11 85715.4 75623.9
 3.12 89778.2 79001.9
 3.13 94164.7 82622.9
 3.14 98923.7 86521.4
 3.15 104113 90738.1
 3.16 109800 95320.3
 3.17 116062 100322
 3.18 122986 105801
 3.19 130658 111815
 3.2 139157 118414
 3.21 148527 125618
 3.22 158744 133392
 3.23 169648 141601
 3.24 180878 149955
 3.25 191796 157966
 3.26 201484 164946
 3.27 208865 170108
 3.28 213003 172791
 3.29 213458 172724
 3.3 210506 170163
 3.31 205035 165807
 3.32 198205 160527
 3.33 191086 155111
 3.34 184461 150114
 3.35 178794 145852
 3.36 174298 142458
 3.37 171032 139948
 3.38 168974 138289
 3.39 168081 137432
 3.4 168320 137340
 3.41 169683 137997
 3.42 172191 139404
 3.43 175872 141557
 3.44 180723 144405
 3.45 186648 147791
 3.46 193370 151375
 3.47 200308 154545
 3.48 206372 156325
 3.49 209707 155366
 3.5 207856 150416
 3.51 199341 141573
 3.52 185860 130950
 3.53 171127 120828
 3.54 157540 111866
 3.55 145585 103672
 3.56 135042 95823.6
 3.57 125750 88166.9
 3.58 117847 80822.2
 3.59 111845 74197.7
 3.6 108480 69002.4
 3.61 107871 65864.8
 3.62 108421 64292.7
 3.63 108156 62711.2
 3.64 107547 60603.9
 3.65 108752 59196.2
 3.66 113007 60101.2
 3.67 118780 63733.8
 3.68 122465 68235.9
 3.69 123444 71913.7
 3.7 123966 75472.1
 3.71 124496 79163.5
 3.72 123796 81633.2
 3.73 121028 81877.5
 3.74 115902 79937.6
 3.75 108678 76397.1
 3.76 100616 72067.9
 3.77 93135.5 67651.4
 3.78 86964.8 63561.5
 3.79 82176.9 59998.5
 3.8 78219 56950.9
