 Energy(eV)     Ext     Sca
 2.8 237.693 150.856
 2.81 244.492 155.182
 2.82 251.545 159.663
 2.83 258.865 164.309
 2.84 266.464 169.126
 2.85 274.356 174.124
 2.86 282.558 179.312
 2.87 291.084 184.699
 2.88 299.953 190.296
 2.89 309.182 196.113
 2.9 318.792 202.162
 2.91 328.803 208.456
 2.92 339.237 215.009
 2.93 350.119 221.833
 2.94 361.475 228.946
 2.95 373.332 236.363
 2.96 385.72 244.101
 2.97 398.671 252.181
 2.98 412.219 260.622
 2.99 426.403 269.445
 3 441.261 278.676
 3.01 456.837 288.339
 3.02 473.179 298.462
 3.03 490.336 309.074
 3.04 508.365 320.209
 3.05 527.326 331.9
 3.06 547.282 344.186
 3.07 568.306 357.109
 3.08 590.475 370.713
 3.09 613.874 385.048
 3.1 638.596 400.167
 3.11 664.742 416.129
 3.12 692.424 432.998
 3.13 721.765 450.845
 3.14 752.901 469.748
 3.15 785.981 489.792
 3.16 821.172 511.073
 3.17 858.657 533.694
 3.18 898.642 557.771
 3.19 941.354 583.434
 3.2 987.048 610.827
 3.21 1036.01 640.108
 3.22 1088.56 671.459
 3.23 1145.06 705.079
 3.24 1205.92 741.196
 3.25 1271.6 780.064
 3.26 1342.63 821.974
 3.27 1419.61 867.254
 3.28 1503.23 916.278
 3.29 1594.28 969.473
 3.3 1693.67 1027.33
 3.31 1802.47 1090.42
 3.32 1921.92 1159.39
 3.33 2053.46 1235
 3.34 2198.82 1318.14
 3.35 2360.01 1409.86
 3.36 2539.47 1511.38
 3.37 2740.11 1624.16
 3.38 2965.45 1749.95
 3.39 3219.83 1890.85
 3.4 3508.58 2049.4
 3.41 3838.35 2228.72
 3.42 4217.56 2432.63
 3.43 4656.97 2665.92
 3.44 5170.59 2934.61
 3.45 5776.95 3246.42
 3.46 6501.05 3611.33
 3.47 7377.36 4042.49
 3.48 8454.53 4557.58
 3.49 9802.72 5180.68
 3.5 11524.8 5945.08
 3.51 13770.6 6896.33
 3.52 16744.4 8092.29
 3.53 20652.2 9585.57
 3.54 25434.9 11346.8
 3.55 30164.1 13101
 3.56 33049.9 14345.8
 3.57 33462.6 14990.1
 3.58 33024.5 15658.2
 3.59 33321.5 16689.1
 3.6 34337.6 17758.7
 3.61 35289.4 18359.8
 3.62 35456.2 18096.2
 3.63 34626.8 16889.6
 3.64 33283.5 15096.7
 3.65 32333.3 13397.3
 3.66 32312 12390.8
 3.67 32527 11996.7
 3.68 31533.9 11480.1
 3.69 28547.5 10374.3
 3.7 24045 8810.99
 3.71 19613.2 7191.43
 3.72 16248.9 5794.39
 3.73 14128.3 4742.81
 3.74 13197 4146.71
 3.75 13060 4043.9
 3.76 12785.3 4088.32
 3.77 12146.9 3884.33
 3.78 11875.3 3558.53
 3.79 12250.9 3389.54
 3.8 12378.6 3385.55
