 Energy(eV)     Ext_Z     Sca_Z     Ext_X     Sca_X
 442.801 2.27042 1.77541 1.98337 1.5613
 441.225 2.33633 1.8278 2.03895 1.60575
 439.66 2.40464 1.8821 2.09645 1.65174
 438.107 2.47548 1.93837 2.15598 1.69932
 436.564 2.54895 1.99674 2.21761 1.74858
 435.032 2.6252 2.05728 2.28146 1.79959
 433.511 2.70435 2.12012 2.34761 1.85243
 432 2.78656 2.18536 2.41618 1.90719
 430.5 2.87197 2.25312 2.48729 1.96396
 429.011 2.96076 2.32354 2.56107 2.02283
 427.532 3.0531 2.39675 2.63763 2.08391
 426.062 3.14918 2.4729 2.71712 2.14731
 424.603 3.24919 2.55215 2.79968 2.21315
 423.154 3.35336 2.63465 2.88548 2.28153
 421.715 3.4619 2.72059 2.97468 2.35261
 420.285 3.57507 2.81017 3.06746 2.42651
 418.865 3.69312 2.90357 3.16401 2.50339
 417.455 3.81634 3.00103 3.26454 2.58341
 416.054 3.94503 3.10277 3.36925 2.66673
 414.663 4.0795 3.20905 3.47838 2.75354
 413.28 4.22012 3.32013 3.59219 2.84403
 411.907 4.36725 3.43632 3.71093 2.93841
 410.544 4.52129 3.55792 3.83489 3.0369
 409.189 4.68269 3.68527 3.96438 3.13975
 407.843 4.85191 3.81874 4.09973 3.2472
 406.505 5.02946 3.95872 4.24129 3.35955
 405.177 5.2159 4.10564 4.38945 3.47708
 403.857 5.41182 4.25996 4.54462 3.60012
 402.546 5.61787 4.42219 4.70724 3.72902
 401.243 5.83476 4.59287 4.87779 3.86415
 399.949 6.06326 4.77261 5.0568 4.00591
 398.663 6.3042 4.96204 5.24483 4.15475
 397.385 6.5585 5.16188 5.44249 4.31115
 396.115 6.82717 5.3729 5.65044 4.47562
 394.854 7.1113 5.59596 5.86942 4.64873
 393.6 7.4121 5.83198 6.10021 4.83109
 392.355 7.7309 6.08199 6.34368 5.02337
 391.117 8.06916 6.34713 6.60076 5.22631
 389.887 8.4285 6.62862 6.87249 5.4407
 388.665 8.81069 6.92786 7.16 5.66744
 387.45 9.21774 7.24637 7.46454 5.90748
 386.243 9.65182 7.58584 7.78748 6.16189
 385.044 10.1154 7.94816 8.13034 6.43185
 383.852 10.6112 8.33544 8.49477 6.71864
 382.667 11.1424 8.75004 8.88264 7.02371
 381.49 11.7122 9.19459 9.296 7.34866
 380.319 12.3247 9.67206 9.73715 7.69524
 379.156 12.9842 10.1858 10.2086 8.06545
 378 13.6956 10.7396 10.7133 8.46148
 376.851 14.4645 11.3378 11.2543 8.88581
 375.71 15.2974 11.9853 11.8354 9.34123
 374.574 16.2016 12.6877 12.4605 9.83086
 373.446 17.1855 13.4514 13.1342 10.3582
 372.325 18.2589 14.2837 13.8617 10.9274
 371.21 19.4328 15.1934 14.6491 11.5429
 370.102 20.7205 16.1903 15.5029 12.21
 369 22.1372 17.286 16.431 12.9345
 367.905 23.7009 18.4942 17.4423 13.7235
 366.817 25.4327 19.8309 18.5472 14.5848
 365.735 27.3578 21.3153 19.7576 15.5277
 364.659 29.5065 22.9701 21.0876 16.5629
 363.59 31.9149 24.8228 22.5534 17.7029
 362.527 34.6272 26.9064 24.1745 18.9626
 361.47 37.6973 29.2614 25.9737 20.3596
 360.419 41.1915 31.9378 27.9784 21.9147
 359.374 45.1929 34.9974 30.2215 23.6531
 358.336 49.8057 38.518 32.7426 25.6052
 357.303 55.1629 42.5981 35.5902 27.8077
 356.276 61.4362 47.3647 38.8238 30.3063
 355.255 68.8506 52.9829 42.5174 33.157
 354.24 77.7059 59.6713 46.7634 36.4302
 353.231 88.4097 67.7245 51.6793 40.2151
 352.228 101.528 77.5468 57.4156 44.6258
 351.23 117.871 89.7066 64.1682 49.8105
 350.238 138.632 105.024 72.1956 55.9642
 349.251 165.663 124.721 81.8455 63.3487
 348.27 202.017 150.69 93.5943 72.321
 347.295 253.313 186.022 108.112 83.3783
 346.324 332.459 236.217 126.373 97.2285
 345.36 491.325 313.58 149.977 114.888
 344.4 2257.76 564.067 198.512 137.751
 343.446 1041.38 630.353 222.48 169.754
 342.498 1333.58 978.672 279.7 213.231
 341.554 2438.76 1821.73 364.12 276.713
 340.616 6126.11 4555.73 495.186 374.808
 339.683 26693.2 19572.8 715.5 538.897
 338.754 19175.6 13695.8 1130.51 846.214
 337.831 4162.93 2820.65 2067.13 1534.77
 336.913 1502.8 892.812 4965.27 3644.08
 336 735.53 270.218 21030.9 15132.1
 335.092 855.965 16.4323 22437.2 15172.8
 334.189 18972.4 6044.46 12383.7 3728.7
 333.291 2332.89 1313.49 2465.04 1607.77
 332.397 826.16 531.769 1036.58 648.56
 331.508 469.138 314.999 552.282 302.945
 330.624 314.725 213.079 338.728 132.427
 329.745 229.379 153.224 272.003 33.4313
 328.87 176.151 113.109 507.796 15.0901
 328 141.906 83.0877 5977.57 1748.7
 327.135 125.358 57.2064 3539 1761.15
 326.274 163.9 28.295 835.499 497.736
