 Energy(eV)     Ext     Sca
 2.6 6.11959 0.856929
 2.61 6.26821 0.879517
 2.62 6.41146 0.902949
 2.63 6.54804 0.92729
 2.64 6.67699 0.952603
 2.65 6.79902 0.978914
 2.66 6.91536 1.00624
 2.67 7.02733 1.03459
 2.68 7.13636 1.06397
 2.69 7.24401 1.0944
 2.7 7.35201 1.12588
 2.71 7.46225 1.1584
 2.72 7.5768 1.19197
 2.73 7.69796 1.22655
 2.74 7.82819 1.26215
 2.75 7.9702 1.29872
 2.76 8.12675 1.33626
 2.77 8.30017 1.3748
 2.78 8.4928 1.41443
 2.79 8.70713 1.45521
 2.8 8.94584 1.49724
 2.81 9.21178 1.54061
 2.82 9.50803 1.58543
 2.83 9.83793 1.63182
 2.84 10.2051 1.6799
 2.85 10.6135 1.72983
 2.86 11.0674 1.78175
 2.87 11.5716 1.83584
 2.88 12.1314 1.89231
 2.89 12.7515 1.95135
 2.9 13.4328 2.0132
 2.91 14.1753 2.07808
 2.92 14.9788 2.14628
 2.93 15.8433 2.21808
 2.94 16.7689 2.29382
 2.95 17.7556 2.37388
 2.96 18.8036 2.45866
 2.97 19.9131 2.54864
 2.98 21.0842 2.64435
 2.99 22.3171 2.7464
 3 23.612 2.85548
 3.01 24.9697 2.97231
 3.02 26.3941 3.09749
 3.03 27.8897 3.23165
 3.04 29.461 3.3754
 3.05 31.1127 3.52946
 3.06 32.8492 3.69455
 3.07 34.675 3.87146
 3.08 36.5944 4.06102
 3.09 38.6113 4.26408
 3.1 40.7295 4.48156
 3.11 42.9521 4.71438
 3.12 45.2816 4.96349
 3.13 47.7262 5.23005
 3.14 50.3208 5.51604
 3.15 53.1148 5.824
 3.16 56.1681 6.15689
 3.17 59.5533 6.51828
 3.18 63.3589 6.91237
 3.19 67.6927 7.34422
 3.2 72.6875 7.8199
 3.21 78.5076 8.34679
 3.22 85.358 8.93388
 3.23 93.4972 9.59221
 3.24 103.254 10.3354
 3.25 115.052 11.1806
 3.26 129.409 12.1486
 3.27 146.854 13.2632
 3.28 168.021 14.5534
 3.29 193.718 16.0552
 3.3 224.983 17.814
 3.31 263.155 19.8872
 3.32 309.977 22.3481
 3.33 367.724 25.2905
 3.34 439.335 28.8357
 3.35 528.523 33.1398
 3.36 639.689 38.4039
 3.37 777.43 44.8836
 3.38 946.022 52.902
 3.39 1150.68 62.8586
 3.4 1399.76 75.1697
 3.41 1705.71 90.0551
 3.42 2074.45 106.985
 3.43 2479.67 123.689
 3.44 2837.22 135.416
 3.45 3023.35 136.629
 3.46 2968.33 125.884
 3.47 2727.42 108.024
 3.48 2417.2 89.5207
 3.49 2112.67 73.5379
 3.5 1829.9 60.0162
 3.51 1569.22 48.3172
 3.52 1339.6 38.5181
 3.53 1148.45 30.7588
 3.54 995.349 24.8755
 3.55 874.16 20.5129
 3.56 776.715 17.2834
 3.57 695.41 14.8511
 3.58 624.582 12.963
 3.59 560.726 11.449
 3.6 501.943 10.2042
