 Energy(eV)     Ext_Z     Sca_Z     Ext_X     Sca_X
 476.862 26181.7 23627.2 20230.2 19008.9
 475.035 27030.9 24388.5 20630.9 19375.8
 473.222 27921.5 25191.7 21041.5 19754.1
 471.423 28856.9 26040.8 21462.8 20145.2
 469.637 29841 26939.8 21895.5 20549.8
 467.865 30876.4 27891.4 22339.6 20967.8
 466.106 31966 28897.6 22795.3 21399.1
 464.36 33112.3 29960.5 23262.4 21843.1
 462.627 34318 31081.9 23740.9 22299.3
 460.908 35585.7 32263.8 24230.6 22767.1
 459.201 36918 33507.7 24731.2 23245.9
 457.506 38317 34815 25242.6 23734.8
 455.824 39785 36186.6 25764.4 24232.8
 454.154 41323.7 37623.2 26296.1 24739
 452.497 42934.4 39124.7 26837.1 25252
 450.851 44618.1 40690.5 27387.1 25770.6
 449.218 46376 42320 27945.6 26293.7
 447.596 48212.2 44016 28513.5 26821.5
 445.986 50132.1 45782.2 29092.2 27354.5
 444.388 52141.7 47622.7 29683.1 27893.6
 442.801 54247.2 49541.6 30288 28439.6
 441.225 56455.3 51543.6 30908.6 28993.5
 439.66 58773.2 53633.4 31547.1 29556.2
 438.107 61208.5 55816.2 32205.7 30129.2
 436.564 63769.2 58097 32887.2 30713.6
 435.032 66463.9 60481.3 33594.6 31311.3
 433.511 69301.2 62974.4 34331.4 31924.1
 432 72290.2 65581.8 35101.6 32554.3
 430.5 75440.2 68308.6 35910.1 33204.5
 429.011 78760 71159.9 36762.2 33877.9
 427.532 82255.9 74141.1 37663.1 34578.7
 426.062 85933.8 77257.5 38619.1 35311.8
 424.603 89798.8 80514.1 39637.7 36083.3
 423.154 93855.3 83915.5 40728.3 36901
 421.715 98106.7 87465.5 41902.6 37774.5
 420.285 102555 91167.1 43174.9 38715.8
 418.865 107200 95021.9 44563.1 39740.2
 417.455 112039 99029.4 46088.7 40866.5
 416.054 117066 103187 47778.1 42118.1
 414.663 122273 107490 49662.6 43523.6
 413.28 127645 111928 51778.2 45117.3
 411.907 133157 116484 54164.1 46937.7
 410.544 138767 121121 56856.8 49022.1
 409.189 144416 125788 59885.9 51404.8
 407.843 150036 130426 63268.6 54111.6
 406.505 155549 134969 67001.7 57152.4
 405.177 160868 139339 71056.4 60515.5
 403.857 165899 143458 75377.3 64164
 402.546 170545 147241 79888.1 68039
 401.243 174710 150606 84503.3 72068.1
 399.949 178305 153473 89141.7 76176.9
 398.663 181249 155773 93738.7 80301.4
 397.385 183480 157450 98252.5 84394.3
 396.115 184954 158460 102667 88429.6
 394.854 185642 158762 106997 92404.4
 393.6 185527 158321 111272 96328.2
 392.355 184608 157109 115526 100216
 391.117 182896 155108 119796 104087
 389.887 180422 152314 124116 107956
 388.665 177243 148737 128518 111836
 387.45 173443 144405 133025 115734
 386.243 169151 139371 137656 119647
 385.044 164556 133719 142415 123562
 383.852 159945 127595 147295 127450
 382.667 155771 121251 152269 131262
 381.49 152760 115154 157283 134923
 380.319 152010 110137 162252 138332
 379.156 154790 107454 167058 141377
 378 161579 108243 171559 143926
 376.851 170493 112189 175596 145839
 375.71 177379 116726 178994 146952
 374.574 179127 118867 181551 147077
 373.446 175976 117588 183030 145997
 372.325 170088 113691 183187 143510
 371.21 163542 108443 181874 139537
 370.102 157690 102860 179209 134321
 369 153264 97602.7 175792 128636
 367.905 150545 93063.8 172699 123739
 366.817 149389 89405.1 170993 120792
 365.735 149244 86547.1 170998 120062
 364.659 149314 84255.2 172072 120758
 363.59 148952 82292.7 173055 121585
 362.527 148035 80606.7 172937 121485
 361.47 146851 79310.3 171244 120004
 360.419 145475 78346.8 168082 117244
 359.374 143294 77208.3 163879 113535
 358.336 139351 75170.3 159018 109082
 357.303 133160 71827.3 153664 103885
 356.276 125087 67318.3 147882 97905.7
 355.255 116034 62116.2 141809 91226.2
 354.24 106931 56719.7 135711 84082.5
 353.231 98458.6 51513.4 129946 76857.3
 352.228 90987.7 46784.4 124839 70058.4
 351.23 84570.8 42674.3 120434 64083.4
 350.238 79065.5 39199.4 116419 59097.6
 349.251 74255.8 36283.6 112322 55021.6
 348.27 69935 33806 107809 51629.2
 347.295 65948.1 31652.7 102833 48685.5
 346.324 62197.2 29745 97543.5 46030.9
 345.36 58625.6 28039.8 92138.1 43591.6
 344.4 55198 26516.9 86771.7 41353.9
