 Energy(eV)     Ext_Z     Sca_Z     Ext_X     Sca_X
 476.862 10099 8919.49 9488.76 8750.64
 475.035 10373.7 9157.43 9706.94 8949
 473.222 10658.8 9406.42 9931.17 9154.38
 471.423 10955.1 9667.51 10161.9 9367.39
 469.637 11263.5 9941.77 10399.5 9588.61
 467.865 11584.6 10229.7 10644.2 9818.15
 466.106 11919.2 10531.7 10896.2 10056
 464.36 12267.8 10848.2 11155.6 10302.1
 462.627 12631.3 11179.5 11422.6 10556.3
 460.908 13010.3 11526 11697.3 10818.5
 459.201 13405.5 11887.9 11979.7 11088.4
 457.506 13817.6 12265.4 12269.9 11365.9
 455.824 14247.4 12658.8 12567.8 11650.7
 454.154 14695.4 13068.1 12873.4 11942.2
 452.497 15162.5 13493.3 13186.6 12240
 450.851 15649.1 13934.3 13507.3 12543.5
 449.218 16156.1 14391.1 13835.4 12852.2
 447.596 16685.1 14864.7 14171.4 13166.4
 445.986 17238.5 15356.5 14516.1 13486.4
 444.388 17818.6 15868.1 14870.4 13812.8
 442.801 18428 16401.1 15235.2 14146
 441.225 19069.9 16957.7 15611.5 14486.6
 439.66 19747.4 17539.8 16000.3 14835.2
 438.107 20464.3 18150 16402.9 15192.5
 436.564 21224.7 18790.9 16820.5 15559.3
 435.032 22033.2 19465.4 17254.6 15936.3
 433.511 22894.9 20177 17706.5 16324.4
 432 23815.7 20929.3 18178 16724.5
 430.5 24802.1 21726.5 18670.8 17137.6
 429.011 25860.9 22573.2 19186.6 17564.7
 427.532 26998.8 23474.6 19726.7 18006.9
 426.062 28222.9 24436.5 20292.3 18465.5
 424.603 29541.1 25465.6 20884.5 18941.7
 423.154 30962.5 26569.3 21504.8 19437.1
 421.715 32497.3 27756.1 22154.8 19953.1
 420.285 34157.2 29035.7 22836.1 20491.3
 418.865 35955.4 30419.3 23550.6 21053.7
 417.455 37907 31919.5 24300.2 21642
 416.054 40029.3 33550.8 25087.2 22258.4
 414.663 42341.9 35330 25914 22904.9
 413.28 44867.3 37276.1 26783.1 23584
 411.907 47630 39410 27697 24297.4
 410.544 50652.5 41749.7 28656.9 25045.2
 409.189 53957 44312.5 29663.2 25826.4
 407.843 57565.5 47115.9 30716.2 26639.5
 406.505 61498.6 50176.5 31815.9 27482.2
 405.177 65774.5 53508.9 32962.2 28351.6
 403.857 70407 57124.4 34154.8 29243.9
 402.546 75402.6 61029.1 35394.1 30154.7
 401.243 80758.5 65221.6 36681.3 31079.5
 399.949 86458.6 69690.6 38020.4 32014.4
 398.663 92470.7 74412.2 39419.9 32958
 397.385 98743.2 79347.3 40896.4 33914.6
 396.115 105208 84441.8 42481.5 34900
 394.854 111791 89630.4 44235 35951.6
 393.6 118399 94826.5 46251.1 37139
 392.355 124909 99918.1 48664.4 38577.7
 391.117 131173 104767 51643.7 40434.7
 389.887 137010 109210 55356.2 42908.7
 388.665 142223 113066 59890.8 46162.2
 387.45 146601 116142 65173.3 50221.9
 386.243 149936 118248 70951.9 54919.6
 385.044 152040 119211 76899.3 59948
 383.852 152760 118892 82757.9 64999.3
 382.667 152005 117199 88413.1 69868.5
 381.49 149752 114104 93870 74467.1
 380.319 146080 109664 99185.5 78779.2
 379.156 141211 104067 104408 82817.1
 378 135502 97604.3 109556 86586.4
 376.851 129455 90658.2 114604 90066.9
 375.71 123721 83711.1 119484 93205.2
 374.574 119070 77341.6 124078 95913.8
 373.446 116278 72178 128219 98073.1
 372.325 115851 68768.4 131698 99540.9
 371.21 117506 67304.5 134289 100174
 370.102 119667 67211.6 135794 99855.4
 369 120050 67146.1 136090 98518.4
 367.905 117472 65924.5 135137 96146.1
 366.817 112565 63318.6 132971 92782.5
 365.735 106690 59761.1 129731 88567.3
 364.659 101024 55825.3 125811 83919.2
 363.59 96362.3 52004 121924 79593.5
 362.527 93176.5 48692 118834 76383.2
 361.47 91594.5 46181 116774 74504.1
 360.419 91273.7 44566.8 115153 73307.2
 359.374 91421.6 43640.1 113022 71789.6
 358.336 91132.5 42930.3 109773 69315.1
 357.303 89684.4 41902.2 105392 65832
 356.276 86604.1 40163.6 100245 61612.2
 355.255 81819.4 37624.1 94745.3 56931.3
 354.24 75823.7 34501.5 89207.7 51990.9
 353.231 69460.5 31169.2 83902.6 47015.2
 352.228 63479.8 27989.2 79095.9 42311.7
 351.23 58239.7 25170.6 74926.4 38132.5
 350.238 53773 22780.9 71335.7 34604.8
 349.251 49947.4 20794.7 68096.6 31715.4
 348.27 46589 19138.9 64942.9 29347.2
 347.295 43550.7 17731.1 61707.6 27350.9
 346.324 40733.4 16506.4 58360.2 25607
 345.36 38078.9 15425.3 54952.9 24046.1
 344.4 35551.9 14466.8 51555.9 22639.3
