 Energy(eV)     Ext_Z     Sca_Z     Ext_X     Sca_X
 476.862 113.634 61.6342 101.485 56.5356
 475.035 116.675 63.3391 104.119 58.0627
 473.222 119.73 65.1126 106.76 59.6485
 471.423 122.791 66.9602 109.401 61.2978
 469.637 125.854 68.8874 112.039 63.0151
 467.865 128.928 70.8967 114.681 64.8022
 466.106 132.027 72.9897 117.338 66.6604
 464.36 135.164 75.168 120.024 68.5907
 462.627 138.355 77.4327 122.75 70.5941
 460.908 141.617 79.785 125.532 72.6711
 459.201 144.968 82.2254 128.385 74.8223
 457.506 148.426 84.7543 131.324 77.0475
 455.824 152.014 87.3715 134.368 79.3466
 454.154 155.753 90.0766 137.536 81.7188
 452.497 159.669 92.8681 140.848 84.1628
 450.851 163.786 95.7444 144.326 86.677
 449.218 168.135 98.7041 147.994 89.2603
 447.596 172.742 101.752 151.875 91.9161
 445.986 177.641 104.894 155.994 94.6494
 444.388 182.864 108.137 160.379 97.4659
 442.801 188.448 111.49 165.059 100.372
 441.225 194.434 114.96 170.065 103.374
 439.66 200.864 118.558 175.432 106.481
 438.107 207.787 122.295 181.197 109.701
 436.564 215.255 126.182 187.402 113.042
 435.032 223.325 130.233 194.091 116.516
 433.511 232.062 134.463 201.314 120.134
 432 241.536 138.888 209.125 123.909
 430.5 251.826 143.526 217.584 127.855
 429.011 263.009 148.399 226.749 131.988
 427.532 275.122 153.526 236.645 136.324
 426.062 288.195 158.932 247.289 140.88
 424.603 302.263 164.643 258.7 145.678
 423.154 317.364 170.689 270.902 150.738
 421.715 333.542 177.104 283.918 156.086
 420.285 350.846 183.924 297.78 161.75
 418.865 369.334 191.194 312.519 167.762
 417.455 389.07 198.961 328.173 174.157
 416.054 410.127 207.282 344.784 180.975
 414.663 432.59 216.221 362.4 188.264
 413.28 456.552 225.852 381.076 196.075
 411.907 482.127 236.255 400.875 204.465
 410.544 509.451 247.501 421.881 213.483
 409.189 538.674 259.663 444.184 223.176
 407.843 569.96 272.822 467.878 233.597
 406.505 603.481 287.065 493.064 244.802
 405.177 639.422 302.488 519.844 256.852
 403.857 677.983 319.196 548.327 269.811
 402.546 719.375 337.302 578.622 283.749
 401.243 763.819 356.93 610.843 298.739
 399.949 811.553 378.212 645.105 314.859
 398.663 862.82 401.292 681.522 332.19
 397.385 917.875 426.321 720.206 350.816
 396.115 977.076 453.48 761.334 370.838
 394.854 1041.23 483.048 805.393 392.421
 393.6 1111.45 515.375 853.047 415.773
 392.355 1189.06 550.884 905.096 441.141
 391.117 1275.75 590.082 962.511 468.82
 389.887 1373.57 633.585 1026.47 499.159
 388.665 1485.09 682.141 1098.41 532.578
 387.45 1613.55 736.671 1180.1 569.586
 386.243 1763.05 798.31 1273.71 610.796
 385.044 1938.82 868.47 1381.96 656.961
 383.852 2147.62 948.917 1508.24 709.001
 382.667 2398.27 1041.87 1656.86 768.056
 381.49 2702.4 1150.15 1833.27 835.537
 380.319 3074.9 1277.25 2044.15 913.168
 379.156 3533.03 1427.32 2296.53 1002.92
 378 4098.57 1605.44 2598.72 1107.14
 376.851 4799.66 1817.85 2961.07 1228.75
 375.71 5672.46 2072.05 3396.36 1371.25
 374.574 6762.28 2376.79 3920.39 1538.94
 373.446 8122.66 2741.47 4552.48 1736.95
 372.325 9808.06 3174.61 5315.91 1971.26
 371.21 11850.6 3680.12 6237.94 2248.61
 370.102 14209.2 4250.29 7349.1 2576.16
 369 16703.5 4855.76 8681 2960.97
 367.905 19013.8 5437.89 10261.5 3409.08
 366.817 20811.8 5911.27 12106.2 3922.53
 365.735 21869.7 6174.57 14200.3 4489.99
 364.659 22057.1 6145.36 16447.6 5071.55
 363.59 21385 5812.31 18613.9 5585.22
 362.527 20071.3 5259.08 20311.7 5909.7
 361.47 18453.5 4621.57 21104.9 5925.51
 360.419 16776.9 4006.98 20755 5591.05
 359.374 15090.1 3447.39 19417.3 4989.08
 358.336 13381 2929.95 17552.7 4282.77
 357.303 11733.7 2453.15 15629 3619.69
 356.276 10278.1 2034.63 13883.4 3065.63
 355.255 9074.31 1687.28 12308.6 2604.84
 354.24 8088.43 1407.42 10828.8 2196.21
 353.231 7247.55 1181.09 9451.42 1825.7
 352.228 6506.75 996.697 8243.04 1505.5
 351.23 5857.01 847.126 7239.33 1244.23
 350.238 5297.2 727.283 6430.24 1039.57
 349.251 4817.47 632.09 5779.56 882.762
 348.27 4400.1 556.322 5242.84 762.954
 347.295 4026.22 495.117 4779.84 669.924
 346.324 3681.34 444.511 4361.82 595.569
 345.36 3357.08 401.716 3972.56 534.339
 344.4 3049.53 365.008 3604.65 482.831
