 Energy(eV)     Ext_Z     Sca_Z     Ext_X     Sca_X
 476.862 3450.34 2934.08 3296.39 2906.54
 475.035 3542.23 3011.17 3380.1 2979.97
 473.222 3636.9 3091.45 3466.12 3056.17
 471.423 3734.5 3175.24 3554.61 3135.4
 469.637 3835.21 3262.78 3645.69 3217.87
 467.865 3939.23 3354.22 3739.51 3303.66
 466.106 4046.72 3449.6 3836.19 3392.8
 464.36 4157.89 3548.99 3935.86 3485.33
 462.627 4272.93 3652.43 4038.64 3581.25
 460.908 4392.02 3759.96 4144.67 3680.55
 459.201 4515.36 3871.59 4254.05 3783.23
 457.506 4643.13 3987.31 4366.9 3889.24
 455.824 4775.54 4107.09 4483.32 3998.52
 454.154 4912.75 4230.87 4603.41 4110.98
 452.497 5054.96 4358.55 4727.25 4226.51
 450.851 5202.32 4490 4854.92 4344.97
 449.218 5355.06 4625.14 4986.51 4466.23
 447.596 5513.65 4764.14 5122.35 4590.43
 445.986 5678.69 4907.32 5262.84 4717.77
 444.388 5850.82 5055.02 5408.42 4848.51
 442.801 6030.76 5207.59 5559.57 4982.91
 441.225 6219.32 5365.48 5716.8 5121.25
 439.66 6417.35 5529.13 5880.71 5263.87
 438.107 6625.84 5699.07 6051.9 5411.11
 436.564 6845.87 5875.88 6231.07 5563.39
 435.032 7078.63 6060.19 6418.96 5721.12
 433.511 7325.45 6252.71 6616.41 5884.8
 432 7587.83 6454.24 6824.32 6054.94
 430.5 7867.45 6665.66 7043.69 6232.12
 429.011 8166.05 6887.95 7275.54 6416.97
 427.532 8485.05 7122.18 7520.6 6610.18
 426.062 8825.95 7369.55 7779.61 6812.47
 424.603 9190.41 7631.43 8053.37 7024.68
 423.154 9580.33 7909.36 8342.8 7247.73
 421.715 9997.89 8205.08 8648.91 7482.63
 420.285 10445.6 8520.6 8972.86 7730.55
 418.865 10926.2 8858.22 9315.93 7992.77
 417.455 11443.1 9220.59 9679.57 8270.75
 416.054 12000.1 9610.77 10065.4 8566.12
 414.663 12601.6 10032.3 10475.4 8880.75
 413.28 13252.8 10489.5 10911.5 9216.74
 411.907 13959.6 10986.8 11376.1 9576.31
 410.544 14728 11528.6 11871.1 9961.1
 409.189 15564.5 12119.2 12398.3 10372.6
 407.843 16476.4 12763.7 12959.7 10812.5
 406.505 17472 13467.9 13557.3 11282.3
 405.177 18560.8 14238.1 14193 11783.8
 403.857 19753.2 15081.6 14868.8 12318.5
 402.546 21061.2 16006.6 15586.6 12888.1
 401.243 22498.2 17022.5 16348.2 13494.1
 399.949 24079.6 18139.7 17155.2 14137.9
 398.663 25822.2 19369.9 18009 14820.6
 397.385 27744.9 20726.5 18910.5 15543
 396.115 29870.8 22224.8 19861.2 16306
 394.854 32234.6 23886.4 20866.3 17111.9
 393.6 34880 25737 21932.6 17963.5
 392.355 37858.5 27806.4 23067.2 18862.9
 391.117 41229.4 30127.5 24277.8 19811.8
 389.887 45058.5 32735.3 25572 20809.9
 388.665 49413.7 35663.1 26957.3 21854.9
 387.45 54355.7 38935.4 28440.1 22940.3
 386.243 59920 42555.6 30025.4 24053.2
 385.044 66087.9 46486.4 31715.8 25171.8
 383.852 72745.2 50623.7 33513.9 26262.7
 382.667 79637.5 54769.9 35429.5 27282.9
 381.49 86346.6 58624.1 37505.4 28200.7
 380.319 92325.4 61815.5 39874.5 29062.4
 379.156 97027.3 64006.5 42826.9 30123.7
 378 100089 64995.3 46755.8 31896.3
 376.851 101430 64761.3 51792.3 34792.2
 375.71 101205 63428.2 57532.2 38617.6
 374.574 99679 61179.4 63387.9 42756.1
 373.446 97110.8 58192.4 68998.5 46709.6
 372.325 93727 54630.4 74215.1 50239.9
 371.21 89789.2 50683.8 78946.1 53243.7
 370.102 85692.2 46627.6 83076.3 55647.7
 369 81991.6 42843.1 86454.3 57373.5
 367.905 79249 39749.6 88909.8 58340
 366.817 77656.3 37607 90274.9 58471.3
 365.735 76664.7 36269.2 90391.3 57682.8
 364.659 75145.7 35180.5 89172.1 55937.4
 363.59 72255.9 33743.4 86678.8 53296.8
 362.527 68110.5 31735.2 83166.9 49965.2
 361.47 63486.8 29320 79100.8 46333.2
 360.419 59190.6 26811.3 75081.8 42932.4
 359.374 55754.2 24506.4 71559.9 40172.4
 358.336 53354.2 22611.4 68472.3 37989.6
 357.303 51730.5 21157.2 65316.2 35893.5
 356.276 50237.9 19944.8 61683.4 33454.3
 355.255 48225.9 18677.4 57579.4 30607
 354.24 45436 17194.5 53285.9 27534
 353.231 42048.3 15544.2 49122.5 24464.4
 352.228 38494.2 13890.7 45341 21608.3
 351.23 35158.3 12374.7 42064.3 19100.7
 350.238 32222.3 11065.8 39290 16998.1
 349.251 29689 9973.54 36912.6 15287
 348.27 27475.4 9070 34775.8 13903.4
 347.295 25486.9 8313.4 32742.3 12763.9
 346.324 23653.1 7665.71 30738.2 11795.8
 345.36 21932.1 7100.86 28747.3 10951.2
 344.4 20300 6604.04 26782.6 10204.8
