 Energy(eV)     Sca_F     Sca_B
 442.801 952.262 13285.1
 441.225 989.124 13751.9
 439.66 1027.14 14239.6
 438.107 1066.3 14749.4
 436.564 1106.59 15282.5
 435.032 1147.99 15840.3
 433.511 1190.48 16424.2
 432 1234.01 17035.8
 430.5 1278.53 17676.8
 429.011 1323.97 18349
 427.532 1370.27 19054.4
 426.062 1417.31 19795
 424.603 1464.99 20573.1
 423.154 1513.17 21391.2
 421.715 1561.68 22251.9
 420.285 1610.34 23158.1
 418.865 1658.94 24113
 417.455 1707.22 25119.9
 416.054 1754.92 26182.7
 414.663 1801.71 27305.3
 413.28 1847.27 28492.4
 411.907 1891.2 29749
 410.544 1933.12 31080.5
 409.189 1972.61 32493.1
 407.843 2009.26 33993.8
 406.505 2042.68 35590.4
 405.177 2072.53 37291.7
 403.857 2098.58 39107.7
 402.546 2120.82 41049.9
 401.243 2139.48 43131.6
 399.949 2155.28 45368.1
 398.663 2169.57 47777.1
 397.385 2184.68 50379.4
 396.115 2204.34 53198.9
 394.854 2234.19 56263.3
 393.6 2282.7 59603.9
 392.355 2362.13 63255.7
 391.117 2490.05 67255.9
 389.887 2691.15 71640.9
 388.665 2999.51 76439.9
 387.45 3460.98 81664.6
 386.243 4135.23 87289.8
 385.044 5095.88 93225.3
 383.852 6426.28 99276.5
 382.667 8206.87 105101
 381.49 10490.6 110183
 380.319 13266.4 113861
 379.156 16424.1 115451
 378 19744.3 114476
 376.851 22940 110895
 375.71 25741.4 105183
 374.574 27979.4 98188.6
 373.446 29617.1 90845.9
 372.325 30724.6 83923.2
 371.21 31425.3 77912.8
 370.102 31849.2 73045.8
 369 32105.6 69365.1
 367.905 32273.8 66803.7
 366.817 32404.7 65242.8
 365.735 32526.5 64550.3
 364.659 32651.6 64602.6
 363.59 32782.3 65298
 362.527 32915.1 66565.8
 361.47 33044.5 68372.8
 360.419 33163.3 70729.5
 359.374 33262.2 73690.1
 358.336 33324.3 77337.9
 357.303 33312.8 81733.4
 356.276 33148.2 86781
 355.255 32671.2 91972.3
 354.24 31604.8 96079.5
 353.231 29603.4 97284.5
 352.228 26582.9 94473.5
 351.23 23115.5 88589.9
 350.238 20005.8 81471.9
 349.251 17578.9 74178.8
 348.27 15747.8 67080.8
 347.295 14336.9 60290.3
 346.324 13214.2 53802.5
 345.36 12303.2 47558.5
 344.4 11565.5 41515.6
 343.446 10983.9 35742.7
 342.498 10572.6 30543.9
 341.554 10460.6 26596.8
 340.616 10978.1 25083
 339.683 12326.3 27171.4
 338.754 13780.2 31584.6
 337.831 14243.2 34550.1
 336.913 13751.4 35023.6
 336 12940 35277.3
 335.092 12153.3 38110.7
 334.189 11297.1 44923
 333.291 10055.2 53844
 332.397 8457.62 60563
 331.508 6938.45 62729.7
 330.624 5771.61 61296.4
 329.745 4944.62 58085.8
 328.87 4353.55 54304.4
 328 3910.76 50516.2
 327.135 3560.61 46932.2
 326.274 3270.21 43605.2
