 Energy(eV)     EyBz     EyBx     ExBz     ExBy
 2.8 7685.24 6648.92 9598.22 8842.49 11730.7 10602.4 14667.2 13581.7
 2.81 7953.9 6879.5 9867.22 9089.14 12093.3 10926.8 15122.4 14002.3
 2.82 8235.43 7121.02 10145.3 9344.07 12469.9 11263.6 15594.2 14438.2
 2.83 8530.67 7374.17 10432.9 9607.63 12861.2 11613.3 16083.3 14890
 2.84 8840.48 7639.71 10730.5 9880.18 13267.9 11976.4 16590.5 15358.3
 2.85 9165.84 7918.43 11038.3 10162.1 13690.7 12353.7 17116.4 15843.9
 2.86 9507.77 8211.22 11357 10453.8 14130.6 12745.9 17662 16347.4
 2.87 9867.41 8519.01 11686.9 10755.7 14588.4 13153.7 18228 16869.7
 2.88 10246 8842.84 12028.5 11068.3 15064.9 13577.8 18815.3 17411.6
 2.89 10644.7 9183.8 12382.5 11392 15561.1 14019.1 19424.9 17973.7
 2.9 11065.2 9543.1 12749.3 11727.3 16078.2 14478.6 20057.6 18557.1
 2.91 11508.9 9922.06 13129.5 12074.7 16617.2 14957 20714.4 19162.6
 2.92 11977.5 10322.1 13523.7 12434.8 17179.2 15455.4 21396.3 19791
 2.93 12472.9 10744.8 13932.5 12808.2 17765.6 15974.8 22104.4 20443.4
 2.94 12997.2 11191.8 14356.7 13195.3 18377.6 16516.3 22839.8 21120.6
 2.95 13552.5 11665 14796.9 13597 19016.6 17081.2 23603.5 21823.7
 2.96 14141.2 12166.4 15253.8 14013.7 19684.3 17670.7 24396.6 22553.7
 2.97 14766.1 12698.3 15728.2 14446.2 20382.2 18286 25220.3 23311.7
 2.98 15430 13263 16221 14895.3 21112 18928.7 26075.9 24098.6
 2.99 16136.2 13863.3 16733 15361.6 21875.7 19600.3 26964.4 24915.5
 3 16888.1 14502.1 17265 15845.9 22675.1 20302.3 27887 25763.6
 3.01 17689.6 15182.5 17818 16349.1 23512.4 21036.5 28845 26643.8
 3.02 18545.1 15908.2 18393 16872 24390 21804.7 29839.6 27557.2
 3.03 19459.2 16683 18990.9 17415.5 25310.2 22609 30871.8 28504.9
 3.04 20437.1 17511.3 19612.8 17980.4 26275.8 23451.3 31942.9 29487.7
 3.05 21484.6 18397.7 20259.7 18567.7 27289.7 24334.1 33053.8 30506.8
 3.06 22607.9 19347.6 20932.9 19178.5 28354.9 25259.8 34205.7 31562.8
 3.07 23814.2 20366.6 21633.3 19813.5 29474.8 26231 35399.4 32656.6
 3.08 25111 21461.1 22362.2 20473.9 30653 27250.5 36635.7 33788.8
 3.09 26507 22638.1 23120.8 21160.6 31893.7 28321.4 37915.2 34960
 3.1 28011.4 23905.2 23910.3 21874.6 33201 29447.1 39238.3 36170.3
 3.11 29634.7 25270.8 24731.8 22616.9 34579.9 30631.1 40605.4 37420
 3.12 31388.1 26744.1 25586.5 23388.5 36035.4 31877.5 42016.2 38708.8
 3.13 33284.1 28335 26475.5 24190.1 37573.3 33190.5 43470.4 40036.3
 3.14 35336 30054.4 27400 25022.5 39199.9 34574.8 44967.2 41401.5
 3.15 37558.3 31913.6 28360.8 25886.5 40922 36035.5 46505.4 42803.1
 3.16 39966.5 33925 29358.8 26782.4 42747.2 37578.1 48083.1 44239.4
 3.17 42576.9 36101.1 30394.5 27710.5 44683.7 39208.7 49698 45707.9
 3.18 45406.3 38454.8 31468.4 28670.7 46740.5 40933.9 51346.9 47205.6
 3.19 48471.7 40998.8 32580.3 29662.5 48927.4 42760.5 53025.9 48728.6
 3.2 51789.6 43744.7 33729.8 30684.8 51254.5 44695.9 54730.3 50272.2
 3.21 55374.7 46702.7 34915.7 31735.7 53732.9 46747.9 56454.2 51830.8
 3.22 59239.3 49879.6 36136.1 32812.6 56373.3 48923.9 58190.7 53397.7
 3.23 63391.1 53277.9 37387.9 33911.4 59186.6 51231.1 59931.7 54965
 3.24 67831.3 56893.4 38666.7 35026.6 62182.5 53675.7 61667.7 56523.6
 3.25 72552.2 60713.3 39966.3 36150.6 65368.5 56262 63387.8 58063.1
 3.26 77534.6 64713.3 41278.3 37272.8 68748.9 58991.1 65079.8 59571.5
 3.27 82746 68855.8 42591.2 38379.5 72322.7 61860 66729.6 61035.5
 3.28 88138.9 73088.4 43889.9 39452.2 76081.8 64859.2 68321.9 62440.2
 3.29 93652.7 77343.7 45154.3 40466.2 80009.6 67971.9 69839.6 63768.9
 3.3 99217.4 81542.9 46358.4 41389.2 84078.8 71172.4 71264 65003.7
 3.31 104763 85601.3 47468.7 42179.2 88252.3 74425.7 72575 66125
 3.32 110230 89437.8 48443.7 42781.7 92484.4 77689.2 73751.2 67111.7
 3.33 115588 92985.3 49232.8 43128.5 96725.8 80915.5 74769.9 67941.6
 3.34 120843 96197.7 49780 43138 100930 84057.6 75607.6 68591
 3.35 126034 99045.2 50033.1 42722.3 105064 87075.8 76239.9 69035.4
 3.36 131194 101486 49967.8 41809.8 109113 89943.6 76642.3 69249.3
 3.37 136256 103404 49639.2 40398.9 113094 92653.1 76790 69206.8
 3.38 140891 104514 49270.6 38662.6 117051 95215.6 76658.6 68881
 3.39 144338 104294 49362.7 37095.5 121058 97656.7 76224.7 68244.9
 3.4 145435 102093 50713.2 36595.5 125194 100003 75465.8 67270.9
 3.41 143178 97559.2 54145.1 38229.9 129521 102259 74361.5 65931.2
 3.42 137667 91180.2 59928.5 42580 134013 104362 72893.7 64197.4
 3.43 130374 84182.4 67426.1 49202 138466 106119 71048.6 62041
 3.44 123025 77580.2 75467.3 56892.2 142333 107114 68818.2 59434
 3.45 116159 71295.9 83038.8 64452.3 144591 106652 66205.2 56350.7
 3.46 108798 64219.1 89599.3 71140.7 143792 103851 63230.2 52772.7
 3.47 99567.9 55286 94979.7 76639.9 138656 98079.8 59946.1 48698.7
 3.48 88627.1 45037.6 99171.6 80845.6 129154 89606.2 56464.2 44165.9
 3.49 78692.7 36224.7 102174 83684.7 117033 79732.5 53000.8 39292.9
 3.5 73513.6 32251.8 103909 84998.5 104788 69956.7 49954 34360.1
 3.51 75004.7 34666.8 104178 84473.4 94074.5 60999 48010.9 29943.9
 3.52 81920.4 42084.6 102704 81675 85267.4 52773.8 48231.7 27083.8
 3.53 90997.4 51233.2 99497.8 76519 78275.9 45146.6 51892.9 27305.4
 3.54 99166.6 58978.1 95995.1 70843.9 73436.4 38598.6 59679 32009
 3.55 105150 63867.5 95712.6 69492.6 71609 34228.2 70350.2 40927.6
 3.56 109681 66273.7 100148 74843.9 73517.8 33182.3 81054.8 51514.1
 3.57 113799 67051.7 105988 82605.3 79314.9 35963.9 89915.1 61362.9
 3.58 116280 66505.7 110180 88646.8 88019.7 42031.7 96086.4 69310.9
 3.59 113384 64466.1 112049 92109.7 94905.2 49088.8 99006.4 74567.4
 3.6 104067 61045.9 112113 93597.5 94180.3 53268 99014.5 77072.8
 3.61 92270.7 56904.3 111106 93811.9 87310.4 53415.4 97010.3 77412.1
 3.62 81479.5 52675.6 109461 93165.3 79019.3 51288 93840.9 76295
 3.63 72630.9 48660.3 107362 91881.9 71597.9 48414.5 90094.5 74287.8
 3.64 65502.8 44927.4 104901 90111.2 65466.6 45451.9 86126.7 71776.2
 3.65 59694.7 41459.3 102153 87966.9 60495.4 42617.4 82134.9 69004.6
 3.66 54905.1 38221.5 99182.6 85539.4 56514 39977.4 78225.5 66122.4
 3.67 50968.1 35190.8 96048.7 82902.1 53447.4 37569.5 74458 63219
 3.68 47857.1 32379.2 92805.7 80114.9 51360.2 35463.4 70860.6 60346.9
 3.69 45711.4 29877.5 89503.2 77226.9 50490.4 33818.3 67443.3 57535.5
 3.7 44880.1 27936.1 86186.3 74277.1 51221.9 32943.3 64208.6 54799.9
 3.71 45844.2 27018.7 82895.8 71292.8 53720.1 33237 61157.4 52146.3
 3.72 48708.1 27503.4 79663.3 68284.9 56924 34649.8 58294.7 49576.4
 3.73 52691.3 28940.4 76492.6 65235.5 58424.6 36010.4 55636 47090.8
 3.74 56981.2 30409.4 73310.5 62089.7 57376.6 36103.3 53216.5 44695.3
 3.75 60329.7 31581.7 69930.5 58821.4 55490.5 35109.6 51097.2 42411.6
 3.76 59479.4 31907.8 66293.5 55614.2 54191.3 33793.9 49327.1 40284
 3.77 54029 30816.6 62731.9 52720.2 52787.4 32444.7 47793.3 38328.5
 3.78 47568.4 28866.1 59505.7 50114.6 49568.4 30813.2 46229.7 36436.3
 3.79 42272.2 26792.5 56592.2 47665.9 45060.3 28886.1 44723 34522.1
 3.8 38263.9 24909.9 53901.1 45305.2 40967.4 27001.8 43638.6 32700.7
