 Energy(eV)     Sca_U     Sca_D
 442.801 2.58013e-05 2.55961e-05
 441.225 2.65218e-05 2.63109e-05
 439.66 2.72667e-05 2.70499e-05
 438.107 2.8037e-05 2.78141e-05
 436.564 2.8834e-05 2.86047e-05
 435.032 2.96587e-05 2.94229e-05
 433.511 3.05124e-05 3.02698e-05
 432 3.13965e-05 3.11469e-05
 430.5 3.23124e-05 3.20555e-05
 429.011 3.32616e-05 3.29971e-05
 427.532 3.42456e-05 3.39733e-05
 426.062 3.52662e-05 3.49858e-05
 424.603 3.63251e-05 3.60363e-05
 423.154 3.74243e-05 3.71267e-05
 421.715 3.85657e-05 3.8259e-05
 420.285 3.97514e-05 3.94354e-05
 418.865 4.09839e-05 4.0658e-05
 417.455 4.22655e-05 4.19294e-05
 416.054 4.35987e-05 4.32521e-05
 414.663 4.49865e-05 4.46288e-05
 413.28 4.64317e-05 4.60625e-05
 411.907 4.79375e-05 4.75563e-05
 410.544 4.95073e-05 4.91136e-05
 409.189 5.11447e-05 5.0738e-05
 407.843 5.28536e-05 5.24334e-05
 406.505 5.46382e-05 5.42038e-05
 405.177 5.6503e-05 5.60538e-05
 403.857 5.84529e-05 5.79881e-05
 402.546 6.04929e-05 6.0012e-05
 401.243 6.26289e-05 6.21309e-05
 399.949 6.48667e-05 6.43509e-05
 398.663 6.7213e-05 6.66786e-05
 397.385 6.96748e-05 6.91208e-05
 396.115 7.22598e-05 7.16853e-05
 394.854 7.49764e-05 7.43803e-05
 393.6 7.78336e-05 7.72147e-05
 392.355 8.08413e-05 8.01985e-05
 391.117 8.40101e-05 8.33422e-05
 389.887 8.73519e-05 8.66574e-05
 388.665 9.08795e-05 9.01569e-05
 387.45 9.46068e-05 9.38546e-05
 386.243 9.85492e-05 9.77657e-05
 385.044 0.000102724 0.000101907
 383.852 0.000107149 0.000106297
 382.667 0.000111845 0.000110956
 381.49 0.000116836 0.000115907
 380.319 0.000122145 0.000121174
 379.156 0.000127801 0.000126785
 378 0.000133836 0.000132771
 376.851 0.000140282 0.000139167
 375.71 0.00014718 0.00014601
 374.574 0.000154573 0.000153344
 373.446 0.000162509 0.000161217
 372.325 0.000171044 0.000169684
 371.21 0.000180238 0.000178805
 370.102 0.000190164 0.000188652
 369 0.0002009 0.000199303
 367.905 0.000212538 0.000210849
 366.817 0.000225184 0.000223394
 365.735 0.000238958 0.000237058
 364.659 0.000253998 0.000251979
 363.59 0.000270468 0.000268317
 362.527 0.000288555 0.00028626
 361.47 0.000308479 0.000306027
 360.419 0.000330503 0.000327875
 359.374 0.000354932 0.00035211
 358.336 0.000382135 0.000379097
 357.303 0.000412553 0.000409273
 356.276 0.000446717 0.000443165
 355.255 0.000485275 0.000481416
 354.24 0.000529022 0.000524816
 353.231 0.000578943 0.00057434
 352.228 0.000636268 0.000631209
 351.23 0.000702552 0.000696966
 350.238 0.000779782 0.000773582
 349.251 0.000870532 0.00086361
 348.27 0.000978173 0.000970396
 347.295 0.00110719 0.00109839
 346.324 0.00126362 0.00125357
 345.36 0.00145564 0.00144407
 344.4 0.00169441 0.00168094
 343.446 0.00199601 0.00198014
 342.498 0.00238648 0.00236751
 341.554 0.00290646 0.00288335
 340.616 0.00361719 0.00358843
 339.683 0.00461752 0.00458081
 338.754 0.00607305 0.00602476
 337.831 0.00826033 0.00819465
 336.913 0.0116002 0.011508
 336 0.0164622 0.0163313
 335.092 0.0219517 0.0217772
 334.189 0.0241125 0.0239208
 333.291 0.0202987 0.0201373
 332.397 0.0139675 0.0138564
 331.508 0.00883376 0.00876352
 330.624 0.00566174 0.00561672
 329.745 0.00400832 0.00397645
 328.87 0.00354041 0.00351226
 328 0.00414166 0.00410873
 327.135 0.00521074 0.00516931
 326.274 0.0053842 0.0053414
