 Energy(eV)     Sca_U     Sca_D
 442.801 6299.14 6249.06
 441.225 6475.05 6423.56
 439.66 6656.91 6603.98
 438.107 6844.98 6790.56
 436.564 7039.54 6983.57
 435.032 7240.89 7183.32
 433.511 7449.32 7390.09
 432 7665.17 7604.22
 430.5 7888.78 7826.05
 429.011 8120.51 8055.94
 427.532 8360.75 8294.27
 426.062 8609.92 8541.46
 424.603 8868.44 8797.93
 423.154 9136.79 9064.14
 421.715 9415.45 9340.58
 420.285 9704.94 9627.78
 418.865 10005.8 9926.28
 417.455 10318.7 10236.7
 416.054 10644.2 10559.6
 414.663 10983 10895.7
 413.28 11335.9 11245.7
 411.907 11703.5 11610.4
 410.544 12086.7 11990.6
 409.189 12486.5 12387.2
 407.843 12903.7 12801.1
 406.505 13339.4 13233.3
 405.177 13794.7 13685
 403.857 14270.7 14157.3
 402.546 14768.8 14651.4
 401.243 15290.2 15168.7
 399.949 15836.6 15710.7
 398.663 16409.4 16278.9
 397.385 17010.4 16875.2
 396.115 17641.6 17501.3
 394.854 18304.8 18159.2
 393.6 19002.3 18851.3
 392.355 19736.6 19579.7
 391.117 20510.3 20347.2
 389.887 21326.2 21156.6
 388.665 22187.4 22011
 387.45 23097.4 22913.7
 386.243 24059.9 23868.6
 385.044 25079 24879.6
 383.852 26159.4 25951.4
 382.667 27306 27088.9
 381.49 28524.3 28297.5
 380.319 29820.6 29583.5
 379.156 31201.5 30953.4
 378 32674.7 32414.9
 376.851 34248.6 33976.3
 375.71 35932.7 35647
 374.574 37737.6 37437.5
 373.446 39675.1 39359.7
 372.325 41758.7 41426.7
 371.21 44003.5 43653.6
 370.102 46426.7 46057.5
 369 49047.8 48657.8
 367.905 51889.3 51476.7
 366.817 54976.6 54539.5
 365.735 58339.3 57875.4
 364.659 62011.3 61518.3
 363.59 66032.2 65507.2
 362.527 70447.9 69887.8
 361.47 75312.4 74713.6
 360.419 80689.1 80047.6
 359.374 86653.4 85964.4
 358.336 93294.8 92553
 357.303 100721 99920.1
 356.276 109062 108195
 355.255 118475 117533
 354.24 129156 128129
 353.231 141343 140220
 352.228 155339 154104
 351.23 171521 170158
 350.238 190376 188863
 349.251 212532 210842
 348.27 238812 236913
 347.295 270310 268161
 346.324 308501 306049
 345.36 355382 352556
 344.4 413674 410385
 343.446 487306 483432
 342.498 582637 578005
 341.554 709585 703943
 340.616 883102 876081
 339.683 1.12732e+06 1.11836e+06
 338.754 1.48268e+06 1.47089e+06
 337.831 2.01668e+06 2.00065e+06
 336.913 2.83208e+06 2.80956e+06
 336 4.01909e+06 3.98713e+06
 335.092 5.3593e+06 5.31669e+06
 334.189 5.88685e+06 5.84004e+06
 333.291 4.95573e+06 4.91633e+06
 332.397 3.41003e+06 3.38291e+06
 331.508 2.15668e+06 2.13953e+06
 330.624 1.38226e+06 1.37127e+06
 329.745 978594 970813
 328.87 864357 857485
 328 1.01115e+06 1.00311e+06
 327.135 1.27215e+06 1.26204e+06
 326.274 1.3145e+06 1.30405e+06
