 Energy(eV)     Sca_U     Sca_D
 495.937 4877.01 236.248
 493.961 5065.75 251.387
 492.001 5264.23 268.178
 490.056 5473.08 286.8
 488.127 5693.03 307.449
 486.212 5924.82 330.341
 484.313 6169.3 355.718
 482.429 6427.34 383.845
 480.559 6699.93 415.017
 478.703 6988.11 449.563
 476.862 7293.03 487.845
 475.035 7615.92 530.269
 473.222 7958.13 577.285
 471.423 8321.13 629.393
 469.637 8706.51 687.151
 467.865 9116 751.181
 466.106 9551.48 822.179
 464.36 10015 900.918
 462.627 10508.8 988.265
 460.908 11035.3 1085.19
 459.201 11597.1 1192.76
 457.506 12197 1312.2
 455.824 12838.3 1444.86
 454.154 13524 1592.23
 452.497 14258 1756
 450.851 15044 1938.06
 449.218 15886.1 2140.47
 447.596 16788.8 2365.56
 445.986 17756.5 2615.88
 444.388 18794.3 2894.26
 442.801 19906.9 3203.78
 441.225 21099.5 3547.81
 439.66 22377.1 3929.96
 438.107 23744.4 4354.1
 436.564 25205.9 4824.26
 435.032 26765.4 5344.61
 433.511 28425.6 5919.3
 432 30188.1 6552.3
 430.5 32052.6 7247.2
 429.011 34016.5 8006.92
 427.532 36074.8 8833.33
 426.062 38219.3 9726.86
 424.603 40438.6 10686.1
 423.154 42718.5 11707.2
 421.715 45042.5 12783.7
 420.285 47393.3 13906.3
 418.865 49755.1 15063
 417.455 52117.2 16239.3
 416.054 54478.5 17419.9
 414.663 56853 18589.9
 413.28 59275.6 19737.1
 411.907 61808.6 20855.1
 410.544 64546.2 21946.5
 409.189 67617.2 23025.8
 407.843 71181.3 24122.6
 406.505 75413.5 25283.5
 405.177 80461.7 26568.9
 403.857 86356.3 28041.6
 402.546 92842.2 29734.8
 401.243 99150.8 31591.3
 399.949 103886 33394.8
 398.663 105405 34780.2
 397.385 102840 35422.1
 396.115 96935.3 35288.9
 394.854 89683.5 34659.1
 393.6 83163.7 33839
 392.355 78494.9 32839.4
 391.117 75279.7 31306.8
 389.887 72324.7 28926
 388.665 69302.8 25980.1
 387.45 67111 23118.2
 386.243 66762.1 20643.4
 385.044 67982.2 18437.4
 383.852 69124.4 16324.1
 382.667 68888.3 14289.1
 381.49 67193.7 12422.9
 380.319 64531.7 10792.7
 379.156 61382.4 9404.7
 378 58064.6 8231.94
 376.851 54758.2 7240.49
 375.71 51555.2 6400.08
 374.574 48498.6 5686.05
 373.446 45605.5 5078.52
 372.325 42880.5 4561.29
 371.21 40321.2 4120.86
 370.102 37922.3 3745.82
 369 35676.7 3426.43
 367.905 33576.3 3154.31
 366.817 31612.6 2922.3
 365.735 29776.8 2724.29
 364.659 28059.9 2555.08
 363.59 26452.9 2410.26
 362.527 24946.7 2286.17
 361.47 23532.3 2179.75
 360.419 22200.7 2088.49
 359.374 20942.7 2010.36
 358.336 19749 1943.73
 357.303 18610.3 1887.32
 356.276 17517.6 1840.02
 355.255 16463.8 1800.69
 354.24 15449.5 1767.39
